# Q [1/Ã…] I(Q) [a.u.] dI(Q) [a.u.]
0.00223785 173591 28108.829
0.00251642 141173 21630.067
0.00279499 128872 15388.979
0.00307356 132482 11923.763
0.00335213 169254 8715.4793
0.0036307 146794 7317.0952
0.00390927 154162.8 5764.1965
0.00418784 159936.9 4958.9508
0.00446641 170498.8 4362.1333
0.00474498 160043.9 3825.9498
0.00502355 155419.2 3291.711
0.00530212 164124.5 2979.5141
0.00558069 154702 2626.6424
0.00585926 157572.7 2478.1892
0.00613783 158728.5 2250.302
0.0064164 156028.8 1975.5711
0.00669497 154268.8 1996.4545
0.00697355 157553.55 1757.1926
0.00725212 161132.39 1742.5159
0.00753069 157633.61 1590.7147
0.00780926 157240.64 1528.9117
0.00808783 156999.73 1519.4943
0.0083664 155998.41 1416.9181
0.00864497 158554.33 1381.851
0.00892354 155558.55 1317.3165
0.00920211 155539 1265.557
0.00948068 157637.74 1296.1007
0.00975925 154357.4 1192.8997
0.0100378 156941.04 1194.3829
0.0103164 155599.68 1158.4735
0.010595 156329.05 1127.9637
0.0108735 153325.74 1117.7008
0.0111521 154454.1 1077.9929
0.0114307 154252.14 1095.7606
0.0117092 155763.8 1042.5879
0.0119878 154575.59 1023.6467
0.0122664 153109.93 1022.0931
0.012545 153548.22 982.3909
0.0128235 151189.39 988.03028
0.0131021 151627.88 966.53339
0.0133807 152969.42 945.50974
0.0136592 150425.71 940.00832
0.0139378 151552.12 912.44285
0.0142164 151965.82 920.92255
0.0144949 151963.83 904.02688
0.0147735 151479.66 892.57832
0.0150521 150296.57 878.59556
0.0153307 150749.22 863.08156
0.0156092 150392.22 861.3487
0.0158878 149808.36 852.2798
0.0161664 149532.41 829.38442
0.0164449 148902.69 837.51811
0.0167235 149405.92 809.62084
0.0170021 148683.37 810.24434
0.0172806 148876.98 805.99652
0.0175592 149454.84 802.28741
0.0178378 147911.92 787.02642
0.0181164 148444.12 775.4942
0.0183949 148436.4 772.06696
0.0186735 148250.59 763.51036
0.0189521 147372.83 773.90448
0.0192306 148020.74 786.59305
0.0195092 146653.74 784.96888
0.0197878 146982.44 779.41191
0.0200664 146362.37 781.02241
0.0203449 147166.9 781.27176
0.0206235 145796.72 777.00762
0.0209021 145401.04 772.14015
0.0211806 143845.49 767.17703
0.0214592 144622.16 774.49453
0.0217378 145761.67 766.13096
0.0220163 143656.46 763.79065
0.0222949 142042.75 757.44123
0.0225735 142699.5 756.24585
0.0228521 141916.4 753.35008
0.0231306 142500.79 745.35831
0.0234092 140023.24 745.49251
0.0236878 142265.69 753.64143
0.0239663 141141.06 738.80109
0.0242449 140712.92 739.18749
0.0245235 139498.73 730.03059
0.024802 140362 738.77885
0.0250806 139701.79 735.36883
0.0253592 138445.71 714.59505
0.0256378 138870.83 710.72446
0.0259163 137937.5 687.38236
0.0261949 138321.87 689.90491
0.0264735 137327.99 672.74385
0.026752 136799.07 654.76383
0.0270306 136421.04 658.25303
0.0273092 136248.72 652.87898
0.0275877 135676.29 641.06644
0.0278663 135609.97 639.7621
0.0281449 134345.07 628.06737
0.0284235 133641.61 630.42496
0.028702 134595.02 619.87069
0.0289806 132529.11 611.06779
0.0292592 132701.35 611.10383
0.0295377 131417.1 602.32661
0.0298163 132082.75 597.70561
0.0300949 131194.3 592.05702
0.0303735 130886.49 586.66708
0.030652 129508.16 587.79629
0.0309306 130754.46 583.30836
0.0312092 129321.35 573.88891
0.0314877 129241.52 575.63213
0.0317663 129022.67 568.80259
0.0320449 128403.43 565.02128
0.0323234 127837.46 563.31193
0.032602 126498.86 552.99556
0.0328806 126486.45 551.31136
0.0331592 126703.75 550.3239
0.0334377 126344.76 547.64988
0.0337163 125392.32 551.64931
0.0339949 124316.47 549.85021
0.0342734 124581.7 562.92701
0.034552 123113.3 555.13828
0.0348306 123045.64 550.54854
0.0351091 123496.58 555.83037
0.0353877 123867.81 558.64479
0.0356663 122213.13 560.83366
0.0359449 121188.86 548.74408
0.0362234 120797.72 547.20018
0.036502 120074.49 550.07213
0.0367806 120939.98 548.31756
0.0370591 118988.27 552.55603
0.0373377 119427.59 542.44804
0.0376163 118947.87 542.51817
0.0378949 119247.44 545.49581
0.0381734 116533.27 533.79455
0.038452 116854.16 543.0094
0.0387306 116746.76 530.92126
0.0390091 116415.7 540.51804
0.0392877 115061.67 534.88722
0.0395663 115403.67 526.70995
0.0398448 114856.81 531.58088
0.0401234 115188.54 528.84551
0.040402 114309.05 533.0608
0.0406806 113613.19 526.37489
0.0409591 113611.38 516.75684
0.0412377 110953.1 520.12284
0.0415163 111722.73 516.37252
0.0417948 111037.7 516.48141
0.0420734 111149.44 515.16956
0.042352 110550.12 514.60185
0.0426305 108808.31 520.81498
0.0429091 109682.26 516.30667
0.0431877 108539.42 521.05848
0.0434663 107256.19 516.94372
0.0437448 107380.52 528.65705
0.0440234 106158.31 526.27637
0.044302 105681.53 520.27552
0.0445805 105570.2 524.49744
0.0448591 105005.39 522.24429
0.0451377 102684.48 526.79775
0.0454163 103029.06 523.80927
0.0456948 103162.72 523.70583
0.0459734 101654.67 520.65679
0.046252 101581.5 524.06171
0.0465305 101552.88 514.71292
0.0468091 101495.54 513.99563
0.0470877 99204.43 503.34574
0.0473662 99718.65 498.55624
0.0476448 98753.16 496.60738
0.0479234 99040.29 491.25237
0.048202 97803.5 488.47963
0.0484805 97814.06 485.26447
0.0487591 97006.53 478.19377
0.0490377 97171.6 480.61161
0.0493162 95589.81 470.41756
0.0495948 95062.52 471.54935
0.0498734 94822.38 465.32094
0.0501519 94401.45 465.66735
0.0504305 93745.84 469.78643
0.0507091 92963.37 462.53938
0.0509877 92323.87 463.88779
0.0512662 91937.88 460.47549
0.0515448 91521.54 457.97141
0.0518234 91989.73 461.09978
0.0521019 90743.78 455.11233
0.0523805 91253 458.23448
0.0526591 89509.37 455.72627
0.0529376 88950.97 450.30576
0.0532162 88337.17 452.81191
0.0534948 88274.45 448.38758
0.0537734 87660.73 446.90207
0.0540519 86312.8 441.92419
0.0543305 87248.28 443.14444
0.0546091 85458.05 438.90038
0.0548876 84940.42 429.06338
0.0551662 84872.91 431.60104
0.0554448 83855.84 430.88285
0.0557234 83934.94 425.50023
0.0560019 84004.19 429.47707
0.0562805 82660.88 418.81811
0.0565591 82180.3 420.2647
0.0568376 81926.81 420.6352
0.0571162 81289.32 415.36056
0.0573948 80271.13 416.35224
0.0576733 80757.38 412.72205
0.0579519 78761.46 410.7042
0.0582305 79065.46 410.35026
0.0585091 78997.02 407.53107
0.0587876 77454.47 405.73908
0.0590662 76994.15 404.88333
0.0593448 76548.91 403.55388
0.0596233 76107.11 399.05424
0.0599019 75353.95 397.27618
0.0601805 75366.05 401.00291
0.060459 74518.1 395.54198
0.0607376 74107.67 390.22317
0.0610162 73292.9 390.75207
0.0612948 72904.22 391.42209
0.0615733 72899.02 390.07674
0.0618519 72170.56 386.51294
0.0621305 71509.94 384.21899
0.062409 71618.22 383.1221
0.0626876 70261.21 384.5326
0.0629662 69739.22 378.60583
0.0632448 69420.89 378.64843
0.0635233 69093.66 375.61684
0.0638019 68461.88 375.3699
0.0640805 67668.04 374.59146
0.064359 68012.2 370.31794
0.0646376 67811.85 372.53129
0.0649162 66389.27 369.00834
0.0651947 65354.07 366.70789
0.0654733 65085.66 364.07137
0.0657519 64305.32 360.28747
0.0660305 65107.33 364.84166
0.066309 63802.43 359.61909
0.0665876 63751.67 359.88814
0.0668662 63298.66 355.77758
0.0671447 62909.62 355.58853
0.0674233 61802.47 355.1574
0.0677019 62463.13 351.68636
0.0679804 60666.48 351.32192
0.068259 60357.69 349.5151
0.0685376 60724.3 348.16211
0.0688162 60368.01 347.24677
0.0690947 59141 341.2677
0.0693733 58735.8 344.24011
0.0696519 58846.55 342.9775
0.0699304 58189.3 340.96278
0.070209 56913.43 338.63187
0.0704876 57687.39 335.41525
0.0707662 56705.74 337.85877
0.0710447 56231.17 334.50934
0.0713233 55637.45 332.96768
0.0716019 54753.58 331.62397
0.0718804 54974.75 328.2769
0.072159 54304.51 329.54161
0.0724376 53900.25 326.43514
0.0727161 53643.83 325.30004
0.0729947 53347.08 325.16978
0.0732733 52360.44 324.45623
0.0735519 52068.81 320.66404
0.0738304 51716.61 319.70728
0.074109 51337.64 317.87792
0.0743876 50729.85 316.36192
0.0746661 50237.55 314.75302
0.0749447 49738.13 311.78665
0.0752233 49062.16 311.82522
0.0755018 49740.33 312.28219
0.0757804 48695.16 310.98624
0.076059 48391.35 309.74187
0.0763376 47873.81 307.89781
0.0766161 47488.06 305.39272
0.0768947 47231.01 305.39469
0.0771733 46225.82 301.8326
0.0774518 46483.77 300.93105
0.0777304 46016.82 299.11729
0.078009 45664.73 307.67075
0.0782875 45084.01 305.90855
0.0785661 44531.46 307.11385
0.0788447 44221.46 308.76891
0.0791233 43590.44 309.20791
0.0794018 43300.56 313.92222
0.0796804 42882.94 308.66723
0.079959 42414.88 310.13183
0.0802375 41870.97 309.00633
0.0805161 41357.61 310.50602
0.0807947 41267.3 312.59153
0.0810733 41010.87 308.40152
0.0813518 41120.78 312.71536
0.0816304 40254.29 311.20164
0.081909 39739.38 310.50399
0.0821875 39826.51 310.6347
0.0824661 39724.27 311.16423
0.0827447 38876.58 309.86368
0.0830232 38146.31 308.47931
0.0833018 37923.79 305.7216
0.0835804 38013.54 309.29131
0.083859 37692.6 309.40189
0.0841375 37588.77 309.55998
0.0844161 36133.91 304.16737
0.0846947 36878 300.92723
0.0849732 36006.3 296.67368
0.0852518 35422.18 292.71021
0.0855304 35399.71 290.8188
0.0858089 35173.24 286.2319
0.0860875 35035.66 285.3668
0.0863661 34958.11 284.14963
0.0866447 34547.36 281.4264
0.0869232 34025.65 279.74847
0.0872018 33360.08 276.79927
0.0874804 32779.43 276.09117
0.0877589 33149.63 273.35411
0.0880375 32543.1 271.28665
0.0883161 31803.48 269.04599
0.0885947 31924.63 269.56346
0.0888732 31345.24 267.30022
0.0891518 31514.6 265.25029
0.0894304 30917.39 264.14759
0.0897089 30556.37 261.72658
0.0899875 30281.96 260.41033
0.0902661 30310.01 258.8112
0.0905446 29946.64 257.74231
0.0908232 29642.61 257.04121
0.0911018 29446.77 254.90371
0.0913804 29106.79 253.23926
0.0916589 28622.73 250.78096
0.0919375 27992.73 255.00525
0.0922161 28027.29 259.31134
0.0924946 27872.62 258.04689
0.0927732 27356.63 259.89884
0.0930518 27199.01 259.56079
0.0933303 26972.05 260.61036
0.0936089 26123.24 260.37385
0.0938875 26198.89 259.91893
0.0941661 26331.83 261.5727
0.0944446 25621.89 259.23627
0.0947232 25126.27 256.56903
0.0950018 25452.12 259.17936
0.0952803 25478.11 259.60906
0.0955589 25264.63 260.96289
0.0958375 24173.86 254.41688
0.0961161 24205.58 251.11364
0.0963946 24102.7 247.9174
0.0966732 23735.19 244.25287
0.0969518 23441.25 244.42517
0.0972303 23764.57 242.51324
0.0975089 22954.19 239.56141
0.0977875 22774.66 239.14129
0.098066 22580.03 237.7402
0.0983446 22053.55 237.19322
0.0986232 21664.83 234.15657
0.0989018 21917.6 236.43839
0.0991803 21605.21 234.18217
0.0994589 21124.12 230.72672
0.0997375 21308.43 231.16404
0.100016 20984.39 228.08255
0.100295 20603.39 226.45876
0.100573 20534.49 225.56229
0.100852 20260.82 224.90347
0.10113 20241.98 223.64924
0.101409 20218.02 222.15767
0.101687 19743.96 221.41373
0.101966 19355.82 220.0819
0.102245 18967.67 218.66467
0.102523 19436.91 219.23232
0.102802 19096.34 218.19521
0.10308 18176.54 215.99066
0.103359 17907.12 215.60675
0.103637 18242.04 215.53485
0.103916 18589.87 215.0168
0.104195 17695.42 213.27148
0.104473 17502.3 211.21311
0.104752 17442.66 211.29802
0.10503 17309.41 211.85564
0.105309 17135.06 209.53006
0.105587 16711.15 210.26122
0.105866 17009.12 207.67305
0.106145 16623.91 208.15524
0.106423 15894.49 205.69793
0.106702 16459.99 205.52559
0.10698 15756.26 207.15696
0.107259 15973.41 203.52848
0.107537 15574.71 205.36608
0.107816 15401.72 202.53866
0.108095 15230.13 202.57209
0.108373 15016.09 201.28465
0.108652 15097.68 201.03913
0.10893 14941.41 201.81952
0.109209 14801.23 199.68872
0.109487 14195.63 196.74822
0.109766 14198.72 198.82496
0.110045 14405.26 198.08856
0.110323 13900.34 196.45579
0.110602 13815.65 195.14074
0.11088 13438.42 194.9096
0.111159 13301.01 195.20871
0.111437 12814.96 192.0109
0.111716 13297.2 193.46867
0.111995 12774.33 191.88576
0.112273 13026.42 192.76942
0.112552 12558.33 191.96206
0.11283 12519.16 190.41386
0.113109 12394.56 190.30219
0.113387 11963.71 188.42447
0.113666 12328.88 189.30642
0.113945 12177.61 188.35895
0.114223 12027.41 187.52082
0.114502 11647.59 186.60786
0.11478 11341.8 186.60536
0.115059 11195.7 185.43982
0.115337 11176.64 185.3492
0.115616 11125.45 184.22563
0.115895 11076.49 184.35029
0.116173 11077.45 184.25758
0.116452 10597.74 182.14095
0.11673 10795.56 182.70963
0.117009 10516.58 182.24761
0.117287 9896.88 179.83273
0.117566 10322.74 180.9
0.117845 10104.17 180.59305
0.118123 10117.92 179.96033
0.118402 10274.15 179.64254
0.11868 9801.16 177.94926
0.118959 9594.28 178.04796
0.119237 9533.98 177.97472
0.119516 9544.37 176.37302
0.119795 9370.94 175.66997
0.120073 9210.86 174.40827
0.120352 9357.82 175.98087
0.12063 8771.37 173.48059
0.120909 8627.9 173.60603
0.121187 8755.61 172.75852
0.121466 8550.53 171.67897
0.121745 8626.67 172.64918
0.122023 8272.63 170.84549
0.122302 8247.01 170.17152
0.12258 8400.83 169.90072
0.122859 8009.01 169.22495
0.123137 8015.83 169.28951
0.123416 7967.76 166.7995
0.123695 7597.49 166.11809
0.123973 7628.61 166.65947
0.124252 7570.03 164.9292
0.12453 7365.58 166.2951
0.124809 7207.27 164.01207
0.125087 7545.27 166.02755
0.125366 7534.58 164.85334
0.125645 6920.06 162.74662
0.125923 7240 163.96721
0.126202 6876.96 163.21272
0.12648 7006.35 164.59902
0.126759 6896.98 163.78149
0.127037 6780.31 162.43933
0.127316 6605.1 162.01397
0.127594 6701.39 162.38207
0.127873 6453.8 161.14053
0.128152 6822.35 162.46804
0.12843 6436.38 161.34404
0.128709 6359.94 161.10394
0.128987 6443.19 159.99166
0.129266 5562.09 158.37619
0.129544 6061.31 159.60946
0.129823 5888.54 159.45681
0.130102 5601.01 158.1712
0.13038 5959.04 157.74967
0.130659 5500.69 156.87723
0.130937 5617.92 156.82988
0.131216 5608.58 157.32212
0.131494 5682.96 157.54184
0.131773 5520 156.70291
0.132052 5550.48 154.83889
0.13233 5258.5 156.48435
0.132609 5279.17 155.15814
0.132887 5258.65 154.94043
0.133166 5212.85 154.45868
0.133444 5162.72 153.74281
0.133723 5196.18 154.54527
0.134002 5076.99 153.00179
0.13428 4795.05 153.62461
0.134559 4806.34 152.74908
0.134837 4965.52 153.01598
0.135116 4732.5 152.43415
0.135394 4688.71 151.38655
0.135673 4700.32 150.96945
0.135952 4516.5 151.97054
0.13623 4772.58 149.91351
0.136509 4361.65 150.82435
0.136787 4436.38 150.42122
0.137066 4160.67 151.3822
0.137344 4028.45 153.58182
0.137623 4205.32 152.99179
0.137902 4247.41 156.12652
0.13818 4358.71 156.71922
0.138459 3747.44 154.97303
0.138737 4169.73 156.83049
0.139016 3776.03 155.74634
0.139294 3992.59 158.73216
0.139573 3799.92 157.91591
0.139852 3790.91 157.30245
0.14013 3795.8 159.33202
0.140409 3802.43 158.27101
0.140687 3667.89 159.41486
0.140966 3976.29 159.48539
0.141244 3405.52 158.93045
0.141523 3668.17 160.83249
0.141802 3650.53 159.52595
0.14208 3541.35 159.14459
0.142359 3557.42 159.47195
0.142637 3447.28 160.99817
0.142916 3350.52 160.64304
0.143194 3203.86 159.51071
0.143473 3170 159.84191
0.143752 3328.44 156.95004
0.14403 3200.02 156.40805
0.144309 3215.99 153.0198
0.144587 3174.56 152.51143
0.144866 3188.95 152.13951
0.145144 3121.31 150.96219
0.145423 3094.64 151.13993
0.145702 3090.21 149.22361
0.14598 2856.77 149.70291
0.146259 2981.91 148.98698
0.146537 2562.48 147.96167
0.146816 2947.73 148.25381
0.147094 3004.77 147.15285
0.147373 2841.69 146.71313
0.147652 2914.76 147.45334
0.14793 2726.45 145.62628
0.148209 2612.1 145.72758
0.148487 2712.58 145.69831
0.148766 2861.35 146.24546
0.149044 2658.76 144.51591
0.149323 2740.19 144.73746
0.149602 2447.91 144.13687
0.14988 2393.32 143.85852
0.150159 2708.78 143.03769
0.150437 2395.05 142.87382
0.150716 2402.32 143.46243
0.150994 2435.09 142.86447
0.151273 2444.81 143.6873
0.151552 2435.06 142.79465
0.15183 2500.03 142.08478
0.152109 2427.05 142.56557
0.152387 2413.35 140.85716
0.152666 2380.26 141.79637
0.152944 2440.12 141.45326
0.153223 2518.26 140.95806
0.153502 2426.78 141.02275
0.15378 2628.14 140.64911
0.154059 2204.81 140.44706
0.154337 2142.59 139.38789
0.154616 2115.17 138.93827
0.154894 2185.85 139.78128
0.155173 2225.44 138.75968
0.155452 2260.2 139.51879
0.15573 1899.29 138.56692
0.156009 2169.53 138.49693
0.156287 2197.21 138.13251
0.156566 1976.84 136.4709
0.156844 2118.11 137.75881
0.157123 2198.69 138.2271
0.157402 2133.26 137.3537
0.15768 1940.41 136.97115
0.157959 2119.08 136.97298
0.158237 1841.91 136.30159
0.158516 2195.39 137.70142
0.158794 2016.76 136.0915
0.159073 1917.92 136.02668
0.159352 2106.36 136.63307
0.15963 1984.92 135.39825
0.159909 1700.09 135.20788
0.160187 1529.92 133.84679
0.160466 2038.26 135.90739
0.160744 2146.01 135.83645
0.161023 1750.64 134.40217
0.161302 1589.06 133.93965
0.16158 1819.22 134.42951
0.161859 1700.43 133.7579
0.162137 1694.18 134.16678
0.162416 1856.17 133.28222
0.162694 1717.96 133.77433
0.162973 1849.08 134.54586
0.163252 1581.27 132.8029
0.16353 1622.07 133.28467
0.163809 1548.76 132.22303
0.164087 1849.12 134.0489
0.164366 1862.51 133.02103
0.164644 1660.01 132.03829
0.164923 1619.65 132.27957
0.165201 1593.52 131.38045
0.16548 1830.78 131.91005
0.165759 1616.93 131.84164
0.166037 1668.88 131.02336
0.166316 1737.8 131.04126
0.166594 1679.79 130.86654
0.166873 1462.82 130.93864
0.167151 1534.95 130.19964
0.16743 1684.4 129.96595
0.167709 1347 129.72021
0.167987 1588.25 130.07838
0.168266 1633.1 130.21849
0.168544 1475.41 129.99986
0.168823 1360.71 129.88943
0.169101 1620.03 129.66838
0.16938 1536.5 128.69566
0.169659 1733.01 129.59724
0.169937 1344.42 129.03759
0.170216 1401.36 128.8083
0.170494 1439.16 129.0998
0.170773 1441.93 128.56451
0.171051 1466.75 128.81496
0.17133 1380.48 128.67838
0.171609 1436.81 128.88559
0.171887 1420.41 129.06193
0.172166 1458.13 129.55147
0.172444 1369.16 128.37954
0.172723 1407.87 129.09188
0.173001 1626.23 128.40829
0.17328 1669.19 128.91325
0.173559 1398.29 128.76356
0.173837 1347.35 127.42456
0.174116 1450.31 127.25235
0.174394 1394.54 127.78242
0.174673 1491.54 128.11655
0.174951 1579.49 127.80901
0.17523 1481.35 128.06786
0.175509 1115.18 126.86729
0.175787 1371.95 127.09268
0.176066 1243.44 127.07667
0.176344 1344.19 127.29768
0.176623 1238.85 126.57842
0.176901 1281.13 126.59974
0.17718 1470.53 126.63652
0.177459 1671.13 127.79818
0.177737 1480.7 127.23204
0.178016 1339.94 126.26311
0.178294 1527.99 126.65365
0.178573 1246.03 125.49277
0.178851 1284.86 126.24675
0.17913 1467.58 125.80138
0.179409 1533.65 126.42406
0.179687 1495.66 126.61031
0.179966 1239.27 125.97463
0.180244 1432.72 125.93562
0.180523 1457.64 125.72311
0.180801 1114.53 125.11859
0.18108 1286.34 125.71724
0.181359 1342.5 125.92934
0.181637 1340.5 125.06559
0.181916 1506.54 125.33201
0.182194 1313.87 125.90728
0.182473 1251.37 126.26084
0.182751 1428.12 125.89662
0.18303 1276.66 126.27248
0.183309 1325.85 126.33519
0.183587 1369.24 126.33455
0.183866 1075.55 125.76821
0.184144 1291 125.69497
0.184423 1243.29 126.40132
0.184701 1670.89 126.98558
0.18498 1303.31 126.41603
0.185259 1444.87 126.66721
0.185537 1183.44 125.81404
0.185816 1329.14 126.29509
0.186094 1247.11 126.24769
0.186373 1397.25 126.26224
0.186651 1413.77 125.2604
0.18693 1231.4 125.26209
0.187209 1369.81 125.02215
0.187487 1346.85 125.30271
0.187766 1293.85 125.20909
0.188044 1112.08 125.13155
0.188323 1321.86 125.45483
0.188601 1316.71 124.04988
0.18888 1296.77 124.5804
0.189159 1288.54 123.99844
0.189437 1259.44 124.1975
0.189716 1419.8 124.87425
0.189994 1187.09 123.09045
0.190273 1136.34 123.46533
0.190551 1130.18 123.63081
0.19083 1333.16 123.54133
0.191109 1451.85 124.20834
0.191387 1203.71 122.84492
0.191666 1432.26 123.75042
0.191944 1472.41 123.31572
0.192223 1365.51 122.94578
0.192501 1250.34 123.54859
0.19278 1378.62 122.89034
0.193059 1547.18 123.29609
0.193337 1574.84 122.60684
0.193616 1110.68 122.58532
0.193894 1319.79 122.61029
0.194173 1479.9 121.67826
0.194451 1199.48 122.38612
0.19473 1162.38 122.15065
0.195009 1278.97 121.08075
0.195287 1243.63 122.24099
0.195566 1400.99 120.96398
0.195844 1318.45 122.35838
0.196123 1172.7 123.05006
0.196401 1335.38 124.0511
0.19668 1391.77 126.1055
0.196959 1544.95 125.63942
0.197237 1472.95 127.03604
0.197516 1567.9 126.85752
0.197794 1098.65 126.42395
0.198073 1427.42 127.60244
0.198351 1013.4 126.91323
0.19863 1222.55 128.80221
0.198909 1079.25 127.29853
0.199187 1247.68 128.00923
0.199466 1385.25 129.39006
0.199744 1184.99 128.69233
0.200023 1334.7 129.53411
0.200301 1197.84 129.74512
0.20058 1329.03 130.39578
