# Q [1/Ã…] I(Q) [a.u.] dI(Q) [a.u.]
0.00223785 70109 25560.359
0.00251642 61985 19666.062
0.00279499 50084 13918.491
0.00307356 12796 10751.021
0.00335213 34633 7768.5556
0.0036307 37202 6522.4326
0.00390927 41315.5 5074.0983
0.00418784 34269.3 4300.1395
0.00446641 34267.2 3719.5859
0.00474498 36596.7 3240.5277
0.00502355 41272.9 2744.2108
0.00530212 39180.4 2423.6818
0.00558069 42182.7 2103.3954
0.00585926 40086.2 1943.3383
0.00613783 38194.1 1728.8428
0.0064164 40907.4 1490.9039
0.00669497 41682.9 1467.9573
0.00697355 40054.06 1262.7307
0.00725212 41065.63 1213.6949
0.00753069 39454.04 1091.3327
0.00780926 39471.87 1027.2698
0.00808783 38693.06 1001.0512
0.0083664 40186.75 916.91337
0.00864497 38173.76 870.68925
0.00892354 40294.48 828.56555
0.00920211 39589.13 785.87417
0.00948068 39675.82 784.34317
0.00975925 39007.04 719.69989
0.0100378 39334.39 705.62845
0.0103164 39472.53 680.74175
0.010595 40597.17 658.53764
0.0108735 38703.4 646.814
0.0111521 40127.08 620.44167
0.0114307 40079.76 624.81268
0.0117092 38973.9 587.25569
0.0119878 39628.82 576.29746
0.0122664 38479.7 570.65745
0.012545 39153.17 548.85638
0.0128235 39173.68 553.79439
0.0131021 39947.26 537.86221
0.0133807 39042 520.88264
0.0136592 38601.86 515.39774
0.0139378 38029.61 497.22984
0.0142164 38610.93 501.19903
0.0144949 38728.54 489.15272
0.0147735 38461.62 479.4031
0.0150521 38101.49 472.93338
0.0153307 38543.34 462.74087
0.0156092 38024.93 460.87225
0.0158878 38196.89 453.68213
0.0161664 38853 443.89494
0.0164449 38098.92 447.17746
0.0167235 38092.26 429.89123
0.0170021 37743.12 430.15458
0.0172806 37494.6 426.01552
0.0175592 37204.22 421.84596
0.0178378 37642.17 415.49534
0.0181164 37500.03 407.81889
0.0183949 37889.81 407.76693
0.0186735 37122.89 401.26011
0.0189521 36216.15 403.07041
0.0192306 36950.38 412.68772
0.0195092 37216.77 410.6205
0.0197878 37086.63 406.49646
0.0200664 36422.32 406.85294
0.0203449 36974.69 407.79512
0.0206235 36954.77 407.75378
0.0209021 36147.69 402.04677
0.0211806 36292.69 401.40759
0.0214592 36250.86 403.72153
0.0217378 36346.63 398.30447
0.0220163 35822.89 397.12491
0.0222949 35562.23 394.77399
0.0225735 35739.35 392.48792
0.0228521 35867.83 393.50187
0.0231306 34860.16 387.2944
0.0234092 35387.78 388.8502
0.0236878 35812.72 390.74074
0.0239663 35077.88 382.73819
0.0242449 35166.13 384.64407
0.0245235 35009.96 380.08786
0.024802 35322.95 383.13696
0.0250806 35089.99 380.5096
0.0253592 34685.18 374.05014
0.0256378 35034.11 371.0434
0.0259163 34380.25 356.2929
0.0261949 34565.68 358.29888
0.0264735 34855.15 352.02679
0.026752 34565.25 342.63287
0.0270306 34013.17 342.78428
0.0273092 33370.25 337.68163
0.0275877 33744.19 334.49092
0.0278663 33816.31 332.71339
0.0281449 33687.47 327.4272
0.0284235 33578.92 330.07545
0.028702 33424.76 322.93547
0.0289806 33221.34 320.3364
0.0292592 33337.25 319.31765
0.0295377 32909.75 315.95806
0.0298163 32914.82 311.92174
0.0300949 32694.93 309.77314
0.0303735 32689.1 306.85521
0.030652 32366.56 308.61416
0.0309306 32560.67 304.39469
0.0312092 32438.65 300.23839
0.0314877 32426.57 301.31776
0.0317663 31904.26 297.98686
0.0320449 32272.01 296.87331
0.0323234 32100.05 295.71538
0.032602 32495.84 290.55671
0.0328806 32053.13 290.6665
0.0331592 31805.74 288.75928
0.0334377 31419.45 286.99841
0.0337163 31046.65 289.38096
0.0339949 31052.34 289.33895
0.0342734 30854.47 295.16796
0.034552 30825.22 291.78667
0.0348306 30601.35 288.58651
0.0351091 30476.15 293.01698
0.0353877 30456.55 292.34078
0.0356663 30472.18 294.14747
0.0359449 30578.49 289.01292
0.0362234 30116.07 287.93862
0.036502 30124.61 290.74876
0.0367806 30270.69 289.55009
0.0370591 30049.4 292.32307
0.0373377 29556.56 284.72454
0.0376163 29706.23 286.59726
0.0378949 29279.54 287.0807
0.0381734 29265.37 282.18175
0.038452 29083.32 286.58205
0.0387306 28796.46 280.45073
0.0390091 28599.09 286.20825
0.0392877 28390.67 283.16392
0.0395663 28793.71 278.05733
0.0398448 28132.11 281.24368
0.0401234 28257.47 279.08937
0.040402 28532.28 281.9934
0.0406806 27666.97 277.06034
0.0409591 27815.84 273.54558
0.0412377 27719.05 276.92527
0.0415163 27437.1 273.28141
0.0417948 27569.29 274.33255
0.0420734 27204.78 273.27546
0.042352 27113.99 272.75135
0.0426305 27350.95 278.18152
0.0429091 27106.87 273.76729
0.0431877 26737.98 279.00084
0.0434663 26418.76 276.63084
0.0437448 27008.15 283.024
0.0440234 26224.03 282.38258
0.044302 26371.26 279.55999
0.0445805 26062.49 281.15098
0.0448591 25958.8 280.0776
0.0451377 26143.37 284.45693
0.0454163 25571.17 283.12214
0.0456948 25414.84 282.61412
0.0459734 25446.77 283.64615
0.046252 25390.8 283.1031
0.0465305 25056.81 276.25264
0.0468091 25275.02 276.91766
0.0470877 24802.4 272.11139
0.0473662 25215.36 270.18582
0.0476448 24424.23 269.77572
0.0479234 25090.74 267.34046
0.048202 24230.35 265.13723
0.0484805 24507.61 264.42981
0.0487591 24071.78 260.51205
0.0490377 23783 261.41401
0.0493162 24159.34 257.02686
0.0495948 24084.04 259.31113
0.0498734 23394.29 253.31827
0.0501519 23513.3 254.1757
0.0504305 22981.42 256.10007
0.0507091 22987.71 253.37871
0.0509877 23084.32 254.65658
0.0512662 23150.79 252.44816
0.0515448 22621.2 252.00915
0.0518234 22279.13 251.49218
0.0521019 22509.77 249.80872
0.0523805 22429.88 251.44716
0.0526591 22397.58 250.66703
0.0529376 21815.96 246.86206
0.0532162 21887.08 249.2614
0.0534948 21917.14 247.27284
0.0537734 21695.41 246.7717
0.0540519 21217.15 244.682
0.0543305 20927.86 243.59541
0.0546091 21159.39 243.91326
0.0548876 20955.25 239.08896
0.0551662 20919.78 239.02891
0.0554448 20342.85 239.6216
0.0557234 20408.72 236.15055
0.0560019 20344.64 237.56488
0.0562805 19885.55 232.07593
0.0565591 20210.59 233.8932
0.0568376 20132.53 234.78249
0.0571162 19545.55 230.91702
0.0573948 19786.04 232.85554
0.0576733 19462.54 229.98469
0.0579519 19719.19 230.89543
0.0582305 19538.76 230.05899
0.0585091 19374.68 229.14995
0.0587876 18883.24 228.23876
0.0590662 18951.98 227.63311
0.0593448 18682.28 226.55482
0.0596233 18754.19 225.8608
0.0599019 18161.87 223.67966
0.0601805 18904.31 226.71451
0.060459 18264.11 224.18739
0.0607376 18304.01 221.57242
0.0610162 18003.18 221.50629
0.0612948 18108.32 222.02648
0.0615733 17797.63 221.84584
0.0618519 17887.84 219.64611
0.0621305 17304.68 218.54435
0.062409 17442.07 218.84999
0.0626876 17037.91 219.55758
0.0629662 17090.84 217.05282
0.0632448 17014.75 216.54319
0.0635233 16500.18 215.15602
0.0638019 16567.23 215.14093
0.0640805 16567.47 215.9173
0.064359 17066.98 214.29386
0.0646376 16294.32 213.53915
0.0649162 16574.31 213.83087
0.0651947 16041.12 212.50079
0.0654733 15692.49 210.08333
0.0657519 15791.56 210.64578
0.0660305 15615.76 212.10896
0.066309 15777.89 210.1944
0.0665876 15552.31 209.74673
0.0668662 15625.84 207.6462
0.0671447 15068.9 206.49402
0.0674233 15182.12 208.13547
0.0677019 15048.8 204.94055
0.0679804 15219.44 206.38489
0.068259 15003.61 206.26044
0.0685376 15059.67 204.40159
0.0688162 14508.87 203.66881
0.0690947 14497.88 201.11044
0.0693733 13908.74 203.76768
0.0696519 14092.14 201.57218
0.0699304 14453.24 202.12876
0.070209 13875.3 200.68816
0.0704876 13674.19 197.60503
0.0707662 13719.28 199.92002
0.0710447 13854.66 199.83198
0.0713233 13810.6 197.98282
0.0716019 13473.93 197.97167
0.0718804 13637.9 195.22336
0.072159 12970.43 197.05127
0.0724376 12900.4 196.11581
0.0727161 13069.5 194.93037
0.0729947 12752.07 194.16229
0.0732733 12867.25 195.89623
0.0735519 12705.98 194.2423
0.0738304 12446.07 192.48189
0.074109 12545.23 192.1877
0.0743876 12578.7 192.21658
0.0746661 12159.08 191.64756
0.0749447 12163.43 188.71903
0.0752233 12052.99 189.71158
0.0755018 12118.58 189.27016
0.0757804 11871.44 189.98071
0.076059 11702.83 189.40912
0.0763376 11881.66 189.30204
0.0766161 11627.28 187.03111
0.0768947 11504.98 186.89621
0.0771733 11091.06 186.52595
0.0774518 11109.64 185.52215
0.0777304 11228.63 185.32342
0.078009 11429.81 190.08509
0.0782875 10858.45 190.2291
0.0785661 10867.05 190.312
0.0788447 10756.65 191.85377
0.0791233 10650.82 192.82573
0.0794018 10792.97 195.60926
0.0796804 10942.91 193.43527
0.079959 10479.38 194.35392
0.0802375 10026.79 193.45593
0.0805161 10595.25 195.42268
0.0807947 9669.42 196.07545
0.0810733 10305.59 194.63386
0.0813518 10268.94 196.4495
0.0816304 9966.86 195.83497
0.081909 9909.31 195.40897
0.0821875 9587.64 196.52221
0.0824661 9869.03 196.48751
0.0827447 10065.43 197.82603
0.0830232 9525.43 197.19353
0.0833018 9179.39 195.06429
0.0835804 9061.57 196.78156
0.083859 9360.62 197.36336
0.0841375 8722.25 197.04392
0.0844161 8729.31 195.59718
0.0846947 8632.49 193.63034
0.0849732 8994.82 191.21722
0.0852518 8854.44 189.69254
0.0855304 8542.34 187.63989
0.0858089 8521.2 185.14534
0.0860875 8369.91 184.92588
0.0863661 8267.79 182.65937
0.0866447 8193.98 182.21998
0.0869232 8045.41 182.12651
0.0872018 8274.66 181.33422
0.0874804 7531.04 179.95212
0.0877589 8141.19 178.87332
0.0880375 7823.95 177.47703
0.0883161 7681.71 177.63624
0.0885947 7740.29 178.06794
0.0888732 7848.44 177.32396
0.0891518 7153.08 174.10204
0.0894304 7579.25 174.67938
0.0897089 7206.82 173.53773
0.0899875 7376.78 173.30958
0.0902661 7388.69 172.25932
0.0905446 7082.19 170.06062
0.0908232 7145 171.59844
0.0911018 7053.88 170.45929
0.0913804 6846.33 168.32483
0.0916589 6842.05 167.9481
0.0919375 7022.23 171.4597
0.0922161 6875.67 175.16977
0.0924946 6943.98 173.79811
0.0927732 6859.43 175.60834
0.0930518 6812.15 176.03912
0.0933303 6887.88 177.9214
0.0936089 6465.56 177.32262
0.0938875 6398.93 177.12849
0.0941661 6100.49 177.77083
0.0944446 6172.2 177.36368
0.0947232 6257.08 176.50343
0.0950018 6095.78 177.275
0.0952803 6174.84 177.79993
0.0955589 5867.53 179.6521
0.0958375 5996.1 175.37208
0.0961161 5693.48 172.74628
0.0963946 5830.36 171.11873
0.0966732 5860.06 169.65238
0.0969518 5743.79 170.76498
0.0972303 5520.78 167.99779
0.0975089 5158.87 166.45943
0.0977875 5421.02 166.91695
0.098066 5094.85 166.33141
0.0983446 5474 166.62606
0.0986232 5397.38 165.29968
0.0989018 5060.06 166.69975
0.0991803 5206.85 165.28151
0.0994589 5182.09 162.98557
0.0997375 5026.16 162.27895
0.100016 4968.58 162.17839
0.100295 4878.45 161.02434
0.100573 4970.38 160.46236
0.100852 5027.81 160.27186
0.10113 4625.74 159.9539
0.101409 4845.47 158.50014
0.101687 4866.4 157.76923
0.101966 4648.17 156.90202
0.102245 4810.75 157.26085
0.102523 4441.34 156.71018
0.102802 4411.21 156.53934
0.10308 4253.75 155.52132
0.103359 4208.48 155.4758
0.103637 4554.37 156.33678
0.103916 4359.54 154.97716
0.104195 4354.95 154.47243
0.104473 4110.89 154.48322
0.104752 4332.14 154.26467
0.10503 4094.15 154.25291
0.105309 3931.51 153.12639
0.105587 4159.39 153.91112
0.105866 3620.96 151.14484
0.106145 3639.76 152.72667
0.106423 3883.59 152.34498
0.106702 3564.84 150.58155
0.10698 3729.45 152.47094
0.107259 3771.64 149.62703
0.107537 3652.16 151.07534
0.107816 3811.83 150.28633
0.108095 3703.48 150.00522
0.108373 3520.93 150.07613
0.108652 3369.96 149.14656
0.10893 3668.95 149.02941
0.109209 3375.72 148.81898
0.109487 3324.07 148.15253
0.109766 3563.3 149.15233
0.110045 3340.62 148.65672
0.110323 3325.16 148.41976
0.110602 3299.85 147.79358
0.11088 3061.39 147.85451
0.111159 3175.15 147.45542
0.111437 3203.49 146.30114
0.111716 3135.45 145.89632
0.111995 3019.14 146.66894
0.112273 2947.25 145.98467
0.112552 2823.5 146.31666
0.11283 3024.74 145.06407
0.113109 3206.98 146.11125
0.113387 2982.2 145.35697
0.113666 2759.14 144.53917
0.113945 2817.83 144.85842
0.114223 2774.87 143.69672
0.114502 2879.07 144.81652
0.11478 2850.61 145.22337
0.115059 2500.44 142.7168
0.115337 2680.4 143.37292
0.115616 2546.34 142.66507
0.115895 2681.26 142.86349
0.116173 2630.09 143.39336
0.116452 2595.99 141.92277
0.11673 2231.69 141.65276
0.117009 2503.61 142.25527
0.117287 2687.26 141.35425
0.117566 2275.43 141.39686
0.117845 2572.62 140.24615
0.118123 2583.69 141.54758
0.118402 2339.54 140.62699
0.11868 2449.33 139.0882
0.118959 2161.68 139.89242
0.119237 2156.03 138.69754
0.119516 2197.52 139.82343
0.119795 2340.76 138.77653
0.120073 2102.62 138.50468
0.120352 2251.9 139.76519
0.12063 2370.11 138.04249
0.120909 1869.41 138.51394
0.121187 2117.62 138.29821
0.121466 2115 137.24984
0.121745 2021.9 137.56284
0.122023 1953.44 136.65792
0.122302 2059.46 136.09076
0.12258 1881.39 135.70817
0.122859 2101.99 135.77706
0.123137 1673.05 136.15706
0.123416 1816.89 135.12169
0.123695 1855.53 134.70656
0.123973 1781.65 134.8268
0.124252 1920.84 133.64073
0.12453 1843.26 134.2083
0.124809 1730.98 134.03674
0.125087 1623.06 134.60239
0.125366 1800.78 133.98379
0.125645 1778.8 133.28325
0.125923 1743.74 133.15871
0.126202 1564.02 132.97487
0.12648 1192.71 132.91401
0.126759 1549.07 133.86482
0.127037 1423.32 133.33603
0.127316 1470.55 133.36126
0.127594 1513.18 133.10504
0.127873 1426.23 133.30225
0.128152 1643.23 132.75022
0.12843 1327.6 131.93575
0.128709 1196.72 132.11384
0.128987 1620.95 132.06684
0.129266 1358.24 131.50826
0.129544 1666.57 132.25253
0.129823 1401.62 131.14885
0.130102 1169.31 131.55722
0.13038 1249.25 130.43819
0.130659 1376.75 130.43659
0.130937 1243.19 130.90851
0.131216 1183.03 130.40225
0.131494 1221.44 129.94743
0.131773 1247.97 130.53753
0.132052 1116.91 128.45521
0.13233 1150.59 130.63628
0.132609 1396.5 129.00896
0.132887 1327.14 129.36935
0.133166 1273.06 129.5668
0.133444 1074.51 128.27282
0.133723 1220.92 129.60129
0.134002 1130.69 127.83625
0.13428 1095.9 128.27326
0.134559 1116.29 129.33667
0.134837 1163.68 128.00585
0.135116 1178.69 128.49222
0.135394 1124.75 127.16376
0.135673 1064.83 127.70292
0.135952 1120.77 128.20403
0.13623 858.4 126.70983
0.136509 956.87 127.63571
0.136787 1107.32 126.81282
0.137066 825.05 128.55029
0.137344 1259.49 130.51773
0.137623 752.37 129.88057
0.137902 982.48 132.63525
0.13818 1032.62 132.43385
0.138459 1023.4 132.32115
0.138737 756.04 133.14843
0.139016 1139.61 133.14273
0.139294 917.66 134.40334
0.139573 740.92 134.15321
0.139852 969.13 134.48357
0.14013 980.99 135.29861
0.140409 815.59 134.46109
0.140687 702.67 135.41971
0.140966 936.74 136.28294
0.141244 981.57 135.73956
0.141523 658.69 137.13097
0.141802 642.31 137.13984
0.14208 555.15 137.04591
0.142359 690.4 135.94348
0.142637 763.51 137.8688
0.142916 829.49 138.4563
0.143194 785.58 137.42387
0.143473 671.71 138.84596
0.143752 1005.14 135.1116
0.14403 602.96 134.66318
0.144309 682.87 132.87436
0.144587 626.16 131.68592
0.144866 589.13 130.51908
0.145144 817.86 130.64428
0.145423 659.58 129.67356
0.145702 743.24 129.25808
0.14598 720.42 130.14889
0.146259 651.76 128.24568
0.146537 683.72 128.25457
0.146816 526.16 127.96793
0.147094 633.26 127.99993
0.147373 678.91 127.08547
0.147652 507.89 127.90368
0.14793 560.12 126.6174
0.148209 730.07 126.95606
0.148487 682.78 126.06618
0.148766 532.65 126.58244
0.149044 555.41 125.29309
0.149323 626.3 125.1718
0.149602 533.63 125.42431
0.14988 474.36 124.7716
0.150159 492.48 125.05429
0.150437 529.02 124.90705
0.150716 557.51 125.75682
0.150994 764.75 124.9491
0.151273 555.56 124.88787
0.151552 647.7 124.62376
0.15183 420.02 123.96881
0.152109 498.48 124.45495
0.152387 535.17 123.23637
0.152666 555.38 124.01468
0.152944 668.47 123.62781
0.153223 651.85 123.30217
0.153502 501.08 123.52507
0.15378 471.26 122.45921
0.154059 383.39 123.39864
0.154337 586.9 122.02192
0.154616 354.36 121.79907
0.154894 539.46 123.44152
0.155173 272.57 121.28141
0.155452 592.08 122.45297
0.15573 345.12 121.48095
0.156009 283.85 121.89338
0.156287 552.21 121.14602
0.156566 467.28 120.27549
0.156844 335.21 121.01257
0.157123 276.96 121.15075
0.157402 413.19 120.21874
0.15768 588.05 120.61618
0.157959 407.25 120.16289
0.158237 363.47 120.02143
0.158516 290.47 120.78577
0.158794 509.37 120.40502
0.159073 391.64 120.18106
0.159352 443.73 120.26552
0.15963 530.65 119.48678
0.159909 503.46 119.54564
0.160187 363.66 119.21917
0.160466 516.25 119.68102
0.160744 396.23 119.37664
0.161023 439.41 118.71556
0.161302 445.01 118.52973
0.16158 456.87 118.03367
0.161859 341 118.46293
0.162137 394.79 118.44272
0.162416 156.99 117.39321
0.162694 417.96 117.89905
0.162973 315.14 117.83258
0.163252 345.04 117.52425
0.16353 601.29 118.13318
0.163809 512.7 116.23534
0.164087 605.05 117.84751
0.164366 282.88 117.21773
0.164644 317.03 116.51001
0.164923 353.76 117.26492
0.165201 313.22 116.40996
0.16548 517.04 117.36105
0.165759 257.14 115.72956
0.166037 272.98 116.11615
0.166316 338.81 116.49367
0.166594 354.65 115.59514
0.166873 319.42 116.17697
0.167151 408.92 115.4207
0.16743 243.3 115.20095
0.167709 260.73 115.2253
0.167987 183.24 114.72897
0.168266 328.04 114.64767
0.168544 158.05 115.09584
0.168823 490.68 115.25287
0.169101 414.64 115.53602
0.16938 321.18 114.57705
0.169659 328.03 114.71977
0.169937 425.62 114.93397
0.170216 365.36 115.16115
0.170494 292.92 114.16121
0.170773 224.09 114.55522
0.171051 220.61 114.13318
0.17133 302.05 114.58448
0.171609 374.03 113.86528
0.171887 285.65 114.47547
0.172166 376.32 114.52968
0.172444 224.87 114.66575
0.172723 172.08 114.17138
0.173001 360.17 113.90143
0.17328 279.25 114.21831
0.173559 186.19 114.21836
0.173837 285.8 113.4591
0.174116 204.02 113.42441
0.174394 323.41 114.11952
0.174673 285.99 114.52698
0.174951 270.76 113.36359
0.17523 221.57 113.36458
0.175509 55.85 113.48802
0.175787 375.39 113.38908
0.176066 275.79 113.32683
0.176344 211.77 113.06805
0.176623 246.24 112.84063
0.176901 496.67 113.14709
0.17718 311.67 112.6525
0.177459 229.52 113.30119
0.177737 199.46 113.02028
0.178016 405.49 111.73788
0.178294 494.11 112.70255
0.178573 478.77 112.30632
0.178851 315.43 112.99653
0.17913 454.18 111.88091
0.179409 -33.04 111.7935
0.179687 394.84 112.84523
0.179966 163.69 112.19023
0.180244 157.41 111.70955
0.180523 405.01 112.2282
0.180801 147.86 111.65904
0.18108 90.28 111.97157
0.181359 141.59 111.51867
0.181637 228.78 111.50305
0.181916 284.53 111.34257
0.182194 392.51 111.58252
0.182473 192.49 111.90232
0.182751 354.46 111.39841
0.18303 264.7 112.82344
0.183309 297.77 112.51686
0.183587 245.8 112.64749
0.183866 376.11 112.26295
0.184144 350.19 111.94191
0.184423 250.79 112.7739
0.184701 309.43 113.14088
0.18498 459.25 112.9001
0.185259 371.67 112.96065
0.185537 297.93 112.13225
0.185816 572.8 113.10581
0.186094 230.1 112.38881
0.186373 108.22 111.86434
0.186651 280.54 112.13282
0.18693 420.87 112.26684
0.187209 266.55 111.62236
0.187487 353.44 111.88544
0.187766 289.41 111.07479
0.188044 322.93 111.02523
0.188323 381.36 111.40455
0.188601 665.17 111.26126
0.18888 291.56 111.40102
0.189159 99.62 110.52529
0.189437 309.78 110.95698
0.189716 48.31 110.56523
0.189994 404.28 110.02628
0.190273 345.73 110.57499
0.190551 251.37 110.50699
0.19083 320.4 109.97563
0.191109 80.94 110.49208
0.191387 317.69 108.9927
0.191666 234.22 110.25769
0.191944 426.7 109.64801
0.192223 213.18 109.27272
0.192501 227.44 109.96518
0.19278 154.77 108.89648
0.193059 131.12 109.75262
0.193337 211.64 108.90277
0.193616 429.31 109.25922
0.193894 107 109.16594
0.194173 393.45 108.53868
0.194451 405.87 108.16084
0.19473 212.5 108.72334
0.195009 662.17 107.987
0.195287 121.28 109.34418
0.195566 193.08 107.82051
0.195844 426.15 109.03844
0.196123 162.37 109.44069
0.196401 106.57 110.5678
0.19668 137.05 112.05361
0.196959 193.15 111.67773
0.197237 144.29 112.86452
0.197516 443.54 112.76972
0.197794 225.2 112.69728
0.198073 434.4 113.85168
0.198351 345.19 112.94794
0.19863 391.08 114.41845
0.198909 343.52 113.88591
0.199187 430.14 114.22862
0.199466 525.2 115.60065
0.199744 425.13 114.6394
0.200023 6.96 115.4923
0.200301 269.18 115.62296
0.20058 674.53 116.76283
0.200858 152.94 116.71837
0.201137 290.3 116.35016
0.201416 374.85 116.83741
0.201694 386.67 116.82364
0.201973 346.05 116.86653
0.202251 261.07 117.95523
0.20253 353.21 118.46851
0.202808 279.35 115.62046
0.203087 275.94 115.30523
0.203366 298.88 114.0401
0.203644 129.45 113.80729
0.203923 290.19 113.37346
0.204201 185.68 113.15542
0.20448 346.26 112.68114
0.204758 271.32 111.2144
0.205037 256.41 111.94605
0.205316 120.94 111.76893
0.205594 319.73 111.45902
0.205873 408.86 111.76986
0.206151 503.67 110.79237
0.20643 356.02 110.97297
