# Q [1/Ã…] I(Q) [a.u.] dI(Q) [a.u.]
0.00223785 46124 25025.411
0.00251642 65716 19222.845
0.00279499 24622 13635.676
0.00307356 24122 10499.46
0.00335213 24273 7610.1712
0.0036307 24482 6352.9425
0.00390927 27339 4936.8429
0.00418784 25237.8 4183.7982
0.00446641 21879.8 3611.4985
0.00474498 18180.9 3123.8715
0.00502355 19489 2634.8122
0.00530212 17720.7 2336.0703
0.00558069 17372.9 2009.0689
0.00585926 14381.8 1840.9634
0.00613783 15632.8 1625.4457
0.0064164 15511 1382.8015
0.00669497 16920.8 1375.546
0.00697355 16181.73 1165.4301
0.00725212 17840.99 1117.8171
0.00753069 16369.35 997.99711
0.00780926 16250.62 924.84182
0.00808783 14609.56 898.72742
0.0083664 15976.17 815.52752
0.00864497 15747.17 773.38763
0.00892354 16374.21 726.1709
0.00920211 16381.8 686.61021
0.00948068 16003.14 680.01311
0.00975925 15830.68 620.35399
0.0100378 15201.67 607.46999
0.0103164 15201.38 575.53546
0.010595 15326.51 554.52711
0.0108735 15357.07 547.97599
0.0111521 15484.72 519.88688
0.0114307 16015.85 522.72573
0.0117092 15293.02 490.72778
0.0119878 15901.03 473.88061
0.0122664 15221.89 469.96129
0.012545 16332.45 445.81861
0.0128235 15572.95 448.72021
0.0131021 15521.62 435.79719
0.0133807 14996.41 421.40573
0.0136592 15212.75 417.75215
0.0139378 15599.72 403.14977
0.0142164 15174.09 400.00058
0.0144949 14763.03 391.63768
0.0147735 15144.52 386.63537
0.0150521 15268.08 378.81228
0.0153307 14932.31 371.06588
0.0156092 15041.86 366.41357
0.0158878 13964.38 361.39527
0.0161664 14909.21 352.93937
0.0164449 14164.1 353.52007
0.0167235 14725.78 340.44026
0.0170021 14689.82 340.38881
0.0172806 15107.93 337.4703
0.0175592 14564.4 333.65876
0.0178378 13881.57 326.29132
0.0181164 14389.74 320.5136
0.0183949 14699.49 319.6739
0.0186735 14735.12 316.04725
0.0189521 14872.61 321.12981
0.0192306 14506.02 324.86762
0.0195092 14636.16 324.68472
0.0197878 14847.34 322.89116
0.0200664 14272.25 320.29874
0.0203449 14397.82 320.00397
0.0206235 14510.17 319.21744
0.0209021 14639.72 316.66348
0.0211806 14027.48 315.2991
0.0214592 13445.15 314.41981
0.0217378 14237.97 313.2704
0.0220163 14230.86 312.4372
0.0222949 14045.27 309.33976
0.0225735 13832.33 310.24588
0.0228521 13967.55 308.10363
0.0231306 13792.29 303.91845
0.0234092 13947.96 305.49568
0.0236878 14149.2 304.70674
0.0239663 14356.07 302.76897
0.0242449 13808.25 302.23138
0.0245235 14103.12 297.58296
0.024802 13171.51 298.95771
0.0250806 13486.23 298.57862
0.0253592 13404.85 291.74239
0.0256378 13318.75 288.654
0.0259163 13282.17 279.2479
0.0261949 13607.72 280.09847
0.0264735 13209.62 275.11138
0.026752 13202.53 268.46698
0.0270306 13090.35 269.19597
0.0273092 13814.2 266.74673
0.0275877 13824.26 264.02196
0.0278663 13405.29 262.91678
0.0281449 13218.96 257.35396
0.0284235 13166.95 259.42702
0.028702 13223.25 254.69838
0.0289806 13579.39 252.17204
0.0292592 13359.95 251.403
0.0295377 13258.25 249.88594
0.0298163 12776.88 245.03227
0.0300949 13228.72 245.03817
0.0303735 12795.13 242.91002
0.030652 12688.26 243.48488
0.0309306 13173.67 240.24858
0.0312092 12799.67 237.14546
0.0314877 12282.53 237.50174
0.0317663 13244.87 234.23327
0.0320449 12878.95 232.81043
0.0323234 12726.89 232.54541
0.032602 12529.68 228.30052
0.0328806 12402.82 228.0771
0.0331592 12565.95 227.63912
0.0334377 12278.2 226.77289
0.0337163 12582.09 229.38669
0.0339949 12537.31 227.80194
0.0342734 12023.43 233.76741
0.034552 12271.85 231.67533
0.0348306 11813.79 229.13539
0.0351091 12262.39 231.77462
0.0353877 11681.43 231.41909
0.0356663 11889.35 234.58879
0.0359449 11649.19 229.50865
0.0362234 11906.22 228.07439
0.036502 11581.41 231.32569
0.0367806 11516.97 228.68881
0.0370591 11541.85 231.83529
0.0373377 11547.25 226.28342
0.0376163 11549.62 228.11872
0.0378949 11814.58 228.14525
0.0381734 11596.68 225.0638
0.038452 11483.09 228.98369
0.0387306 11168.08 224.62617
0.0390091 11412.93 227.56767
0.0392877 11398.64 226.47979
0.0395663 11454.41 222.38114
0.0398448 11102.83 224.25218
0.0401234 11124.19 222.17966
0.040402 10750.68 223.79521
0.0406806 11042.02 221.73339
0.0409591 10731.06 217.69022
0.0412377 10883.09 223.337
0.0415163 10611.31 219.16204
0.0417948 10533.04 219.58343
0.0420734 10740.41 219.34672
0.042352 10809.77 218.51894
0.0426305 10753.95 221.14458
0.0429091 10701.53 219.31027
0.0431877 10487.29 222.5145
0.0434663 10233.41 221.99434
0.0437448 9882.02 226.62883
0.0440234 10524.19 226.24049
0.044302 10786.79 225.55337
0.0445805 10119.15 226.85771
0.0448591 10259.04 226.76473
0.0451377 9968.58 229.66909
0.0454163 10048.92 229.02576
0.0456948 10010.26 227.69802
0.0459734 10050.63 227.83983
0.046252 9790.68 229.75911
0.0465305 9723.92 223.42886
0.0468091 9579.08 223.6524
0.0470877 9985.11 220.75137
0.0473662 9619.29 218.66411
0.0476448 9628.36 217.56037
0.0479234 9656.26 215.61129
0.048202 9474.67 215.55163
0.0484805 9293.26 214.76715
0.0487591 9351.31 211.71024
0.0490377 9244.48 212.2114
0.0493162 9399.07 209.22677
0.0495948 9048.42 208.58378
0.0498734 9190.87 207.99053
0.0501519 9273.35 207.38616
0.0504305 8939.7 209.4598
0.0507091 8964.11 205.83041
0.0509877 8732.34 207.94929
0.0512662 9128.59 206.70315
0.0515448 9034.2 205.15677
0.0518234 8821.37 205.77014
0.0521019 8450.73 204.21989
0.0523805 8761.55 204.79696
0.0526591 8828.86 205.73788
0.0529376 8381.38 204.03479
0.0532162 8598.45 204.14894
0.0534948 8308.33 203.56038
0.0537734 8692.65 202.4739
0.0540519 7918.2 200.36156
0.0543305 8575.04 202.16963
0.0546091 8237.6 199.89528
0.0548876 8263.5 197.06894
0.0551662 8375.53 198.73889
0.0554448 8024.66 198.11627
0.0557234 8105.44 194.62374
0.0560019 7917.99 196.95874
0.0562805 7917.61 192.42936
0.0565591 7941.61 193.93769
0.0568376 7774.78 192.67434
0.0571162 7820.45 191.73577
0.0573948 7641.27 192.84042
0.0576733 7735.09 190.97318
0.0579519 7467.32 192.43596
0.0582305 7624.88 191.26815
0.0585091 7468.72 188.99027
0.0587876 7317.67 189.70169
0.0590662 7585.07 190.44062
0.0593448 7554.22 189.94149
0.0596233 7397.49 188.10078
0.0599019 6968.15 187.45422
0.0601805 7339.78 189.42898
0.060459 7121.35 187.7689
0.0607376 7109.03 185.09991
0.0610162 6767.64 185.52145
0.0612948 6812.59 187.37157
0.0615733 6838.51 185.86375
0.0618519 6791.16 183.7205
0.0621305 6498.81 183.18247
0.062409 6955.35 183.5535
0.0626876 6996.03 185.73088
0.0629662 6496.38 182.49606
0.0632448 6470.68 182.90174
0.0635233 6546.98 181.30043
0.0638019 6938.96 181.36929
0.0640805 6447.11 182.70264
0.064359 6501.38 179.78505
0.0646376 6518.77 182.02618
0.0649162 6303.54 180.62547
0.0651947 6348.57 180.26686
0.0654733 6147.55 178.88506
0.0657519 6329.36 178.54594
0.0660305 6189.77 180.97901
0.066309 6320.92 177.97219
0.0665876 6014.35 177.21949
0.0668662 5833.68 175.47597
0.0671447 6075.93 175.77437
0.0674233 5570.15 177.38947
0.0677019 5944.26 174.5237
0.0679804 5836.69 176.57681
0.068259 5855.21 175.1306
0.0685376 5473.62 173.99111
0.0688162 5637.59 174.33951
0.0690947 5612.39 171.82861
0.0693733 5644.73 174.72268
0.0696519 5457.57 172.85445
0.0699304 5302.96 173.04455
0.070209 5142.29 171.5215
0.0704876 5381.3 170.52985
0.0707662 5259.93 172.50321
0.0710447 4967.22 171.43522
0.0713233 5170.23 170.46748
0.0716019 5233.12 171.48345
0.0718804 5055.63 167.89106
0.072159 5169.94 169.65499
0.0724376 5245.61 169.66775
0.0727161 5057.34 166.75083
0.0729947 5132.6 168.69724
0.0732733 4827.9 169.09403
0.0735519 4636.86 167.30274
0.0738304 4713.83 167.63771
0.074109 4767.44 166.05143
0.0743876 4482.56 166.57984
0.0746661 4588.07 166.12541
0.0749447 4857.34 164.5705
0.0752233 4923.22 165.86693
0.0755018 4687.06 165.01036
0.0757804 4736.42 164.37839
0.076059 4657.81 165.42212
0.0763376 4467.77 164.80131
0.0766161 4730.62 163.96441
0.0768947 4362.19 164.07639
0.0771733 4506.13 162.91454
0.0774518 4328.72 161.97494
0.0777304 4156.52 161.63421
0.078009 4240.12 166.05881
0.0782875 4211.74 165.37436
0.0785661 4078.44 166.842
0.0788447 4100.13 167.90965
0.0791233 3846.94 169.02329
0.0794018 3810.12 172.10444
0.0796804 3542.38 168.98325
0.079959 3803.83 170.76878
0.0802375 3845.89 169.8652
0.0805161 4006.48 172.77331
0.0807947 3796.85 172.96832
0.0810733 3842.94 171.20721
0.0813518 3622.22 174.11052
0.0816304 4070.82 173.83442
0.081909 3705.55 172.7543
0.0821875 3755.15 173.92582
0.0824661 3454.37 174.09561
0.0827447 3271.01 175.34237
0.0830232 3636.95 174.99655
0.0833018 3512.83 174.16323
0.0835804 3557.73 174.85357
0.083859 3494.88 175.971
0.0841375 3325.9 175.58216
0.0844161 3340.38 174.80321
0.0846947 3524.62 172.74261
0.0849732 3301.34 170.27495
0.0852518 3201.24 168.63429
0.0855304 3048.06 167.60523
0.0858089 3641.16 164.95723
0.0860875 3209.72 165.82355
0.0863661 3164.7 164.30841
0.0866447 3121.87 163.465
0.0869232 3097.87 163.48374
0.0872018 3048.75 162.30857
0.0874804 3077.12 163.007
0.0877589 3249.04 161.11541
0.0880375 3074.67 160.05874
0.0883161 3354.6 160.38479
0.0885947 2844.42 160.18613
0.0888732 3083.78 159.29836
0.0891518 2660.12 157.02352
0.0894304 2802.22 157.21163
0.0897089 2863.7 157.24477
0.0899875 2838.06 156.48186
0.0902661 2735.34 154.80043
0.0905446 2675.8 155.07706
0.0908232 2812.79 155.0238
0.0911018 2477.1 154.19076
0.0913804 2680.68 152.77609
0.0916589 2560.73 153.26938
0.0919375 2750.36 155.85087
0.0922161 2700.79 158.76075
0.0924946 2450.03 158.85679
0.0927732 2562.85 159.26025
0.0930518 2265.85 159.56943
0.0933303 2361.92 161.54364
0.0936089 2352.12 162.48447
0.0938875 2342.13 162.1963
0.0941661 2393.71 162.21646
0.0944446 2243.95 161.34787
0.0947232 2032.13 160.68189
0.0950018 2029.66 162.20065
0.0952803 2305.79 162.17369
0.0955589 2144.66 164.39929
0.0958375 1866.85 161.28789
0.0961161 2102.09 158.55911
0.0963946 2222.17 157.56812
0.0966732 2109.11 156.17412
0.0969518 2300.65 156.57797
0.0972303 2041.5 154.13688
0.0975089 1998.52 153.88701
0.0977875 1741.22 152.59491
0.098066 1976.41 153.53197
0.0983446 2307.38 153.48512
0.0986232 2204.48 151.50568
0.0989018 2266.48 153.31174
0.0991803 2135.64 151.57903
0.0994589 1756.82 149.56188
0.0997375 1859.3 149.42118
0.100016 1667.29 149.26584
0.100295 2123.99 148.9406
0.100573 1985.35 148.02603
0.100852 1663.34 147.58336
0.10113 1880.08 147.38411
0.101409 1733.21 146.51106
0.101687 1691.87 146.22526
0.101966 1569.03 146.22031
0.102245 1577.52 146.15934
0.102523 1641.85 145.34635
0.102802 1846.64 145.24289
0.10308 1379.34 144.87565
0.103359 1722.04 145.52884
0.103637 1573.8 144.58383
0.103916 1526.69 144.37063
0.104195 1721.65 143.7554
0.104473 1457.84 143.57948
0.104752 1871.97 143.4784
0.10503 1508.45 144.28577
0.105309 1608.65 143.77792
0.105587 1547.58 144.06246
0.105866 1655.21 141.49881
0.106145 1213.49 142.37477
0.106423 1380.09 141.96989
0.106702 1536.29 141.86757
0.10698 1270.34 142.66537
0.107259 1219.94 140.4892
0.107537 1342.77 142.26654
0.107816 1049.41 140.52493
0.108095 1289.81 141.08011
0.108373 1185.61 140.8946
0.108652 1227.2 140.64202
0.10893 1338.59 141.25055
0.109209 957.86 139.58934
0.109487 1039.9 138.70779
0.109766 1131.02 140.28983
0.110045 1380.11 139.02855
0.110323 1150.61 138.75297
0.110602 1407.25 138.95348
0.11088 1054.72 139.47214
0.111159 1151.86 139.37797
0.111437 1079.06 137.15462
0.111716 1089.97 138.35295
0.111995 978.51 137.32373
0.112273 1169.94 137.38038
0.112552 1036.27 137.74221
0.11283 1151.4 137.47577
0.113109 1031.95 137.71385
0.113387 892.36 137.06057
0.113666 1025.31 137.00267
0.113945 1076.41 136.53892
0.114223 1040.61 136.08084
0.114502 854.86 136.01243
0.11478 928.3 136.78366
0.115059 1203.79 135.55966
0.115337 815.29 135.55548
0.115616 747.26 135.86578
0.115895 835.37 135.66954
0.116173 766.37 135.27394
0.116452 817.66 134.53012
0.11673 645.29 134.91037
0.117009 1074.06 135.51957
0.117287 770.23 134.25857
0.117566 1079.3 134.35097
0.117845 959.25 134.18279
0.118123 988.13 133.93259
0.118402 869.64 134.14452
0.11868 923.53 132.82347
0.118959 904.72 132.75242
0.119237 954.65 132.87874
0.119516 724.48 132.65024
0.119795 801.39 133.22821
0.120073 760.84 131.73154
0.120352 825.49 132.66834
0.12063 824.15 132.30868
0.120909 927.69 131.94082
0.121187 985.9 131.28731
0.121466 617.75 130.90245
0.121745 697.42 132.08034
0.122023 881.79 130.20613
0.122302 728.09 129.62902
0.12258 691.17 129.83514
0.122859 856.12 129.52091
0.123137 749.64 130.39019
0.123416 915.92 128.7393
0.123695 623.04 128.88522
0.123973 900.18 129.56846
0.124252 782.17 127.90539
0.12453 657.82 129.13757
0.124809 689.04 127.87139
0.125087 696.02 129.154
0.125366 687.46 128.65251
0.125645 500.67 127.2948
0.125923 617.93 128.65363
0.126202 818.25 128.61782
0.12648 280.19 128.05689
0.126759 803.91 128.26048
0.127037 399.26 127.97446
0.127316 585.67 127.71021
0.127594 445.28 128.19015
0.127873 499.39 127.72195
0.128152 471.44 127.69583
0.12843 687.93 126.65175
0.128709 283.06 127.56392
0.128987 351.47 127.35488
0.129266 444.98 126.99899
0.129544 517.56 127.19637
0.129823 276.26 126.66607
0.130102 742.45 126.50423
0.13038 510.28 125.82394
0.130659 217.62 125.60772
0.130937 393.96 125.52766
0.131216 375.41 125.16548
0.131494 340.41 125.25102
0.131773 455.38 125.58134
0.132052 530.74 124.44509
0.13233 281.57 125.84388
0.132609 551.69 124.62644
0.132887 274.73 124.68354
0.133166 406.02 125.09015
0.133444 539.72 123.70821
0.133723 336.01 124.86776
0.134002 16.54 123.86203
0.13428 329.31 124.05846
0.134559 412.86 124.80918
0.134837 186.14 123.68804
0.135116 506.95 124.32446
0.135394 347.48 122.19138
0.135673 437.46 123.33152
0.135952 259.16 123.92349
0.13623 75.76 122.57196
0.136509 442.79 123.60036
0.136787 140.35 122.62784
0.137066 562.73 124.394
0.137344 420.43 127.1021
0.137623 413.5 126.2992
0.137902 408.94 128.22929
0.13818 273.73 128.41249
0.138459 492.26 128.58435
0.138737 316.61 129.71484
0.139016 222.16 128.39302
0.139294 380.41 130.38325
0.139573 183.42 129.89269
0.139852 95.18 130.0719
0.14013 354.32 131.86909
0.140409 412.51 131.16689
0.140687 117.76 131.47971
0.140966 196.93 132.23731
0.141244 446.39 131.47711
0.141523 283.41 132.70864
0.141802 217.47 132.3852
0.14208 211.01 133.31939
0.142359 213.53 132.31579
0.142637 315.69 133.69959
0.142916 219.13 133.81953
0.143194 255.31 133.99929
0.143473 175.52 134.27499
0.143752 265.61 130.8874
0.14403 295.07 130.93784
0.144309 441.09 128.62541
0.144587 10.16 127.58664
0.144866 134.36 126.9051
0.145144 326.99 125.91405
0.145423 109.61 126.54508
0.145702 198.67 125.69333
0.14598 112.01 125.67603
0.146259 136.16 124.95834
0.146537 332.3 125.35978
0.146816 244.05 124.32993
0.147094 439.89 123.5496
0.147373 190.77 123.47368
0.147652 -73 123.93583
0.14793 481.07 122.97518
0.148209 35.74 123.38333
0.148487 357.01 123.2918
0.148766 123.59 122.44049
0.149044 105.24 122.65079
0.149323 148 121.51454
0.149602 109.62 121.80359
0.14988 -63.21 121.78217
0.150159 56.93 121.25297
0.150437 212.45 122.03292
0.150716 272.83 121.92007
0.150994 176.47 120.99028
0.151273 98.87 121.19525
0.151552 287 121.45617
0.15183 124.69 120.65255
0.152109 119.51 121.37557
0.152387 83.24 119.79574
0.152666 -38.87 121.38655
0.152944 -102.71 120.25016
0.153223 218.54 120.31338
0.153502 271.24 120.26835
0.15378 233.09 119.64232
0.154059 202.57 120.02208
0.154337 46.56 118.77828
0.154616 122.44 118.55138
0.154894 160.15 118.98063
0.155173 131.44 118.40978
0.155452 -252.03 119.37291
0.15573 -84.98 118.29485
0.156009 126.95 119.24109
0.156287 -5.77 118.35672
0.156566 81.57 117.19778
0.156844 117.8 118.16386
0.157123 -16.81 118.14537
0.157402 92.87 117.46733
0.15768 -90.66 117.64748
0.157959 48.4 116.51645
0.158237 219.93 117.58465
0.158516 -137.3 117.29014
0.158794 -58.98 117.0579
0.159073 201.24 116.68316
0.159352 190.88 116.53864
0.15963 -105.48 116.30757
0.159909 207.64 116.7296
0.160187 250.06 115.85013
0.160466 72.73 116.36191
0.160744 143.34 116.53722
0.161023 -73.77 115.95687
0.161302 49.63 115.4654
0.16158 -50.32 114.98796
0.161859 111.63 115.30137
0.162137 69.88 115.35474
0.162416 186.63 114.94938
0.162694 98.67 114.97915
0.162973 -29.09 115.19105
0.163252 29.76 114.76796
0.16353 120.95 114.61475
0.163809 -78.07 113.76852
0.164087 337.72 114.86196
0.164366 189.33 114.45451
0.164644 93.72 113.64628
0.164923 -36.44 114.03267
0.165201 43.11 113.45253
0.16548 23.64 114.0009
0.165759 267.31 113.5426
0.166037 104.73 113.0993
0.166316 -63.75 113.37635
0.166594 95.59 112.92106
0.166873 116.94 113.21909
0.167151 91.06 112.57871
0.16743 350.19 112.56871
0.167709 -51.14 112.47902
0.167987 164.95 112.19317
0.168266 288.34 112.14517
0.168544 119.66 112.4045
0.168823 -76.38 112.20516
0.169101 420.81 112.19526
0.16938 -105.16 111.72722
0.169659 92.48 112.05896
0.169937 118.87 111.5457
0.170216 11.91 111.63325
0.170494 -90.13 111.59484
0.170773 175.42 111.14271
0.171051 -141.73 112.10727
0.17133 159.92 111.42764
0.171609 79.46 111.31921
0.171887 189.99 111.95435
0.172166 -109.78 111.90474
0.172444 187.8 111.40629
0.172723 -98.4 111.63149
0.173001 -47.84 111.15992
0.17328 -71.58 111.67414
0.173559 -73.47 111.47777
0.173837 172.6 110.81311
0.174116 13.79 110.74761
0.174394 145.88 110.76594
0.174673 -52.03 111.07292
0.174951 -190.02 110.38521
0.17523 -83.9 110.76989
0.175509 -125.04 110.97594
0.175787 137.79 110.86774
0.176066 80.28 110.2039
0.176344 133.49 110.54704
0.176623 55.87 109.84849
0.176901 150.24 110.07999
0.17718 20.2 110.05483
0.177459 -45.84 110.53017
0.177737 64.19 110.02594
0.178016 -128.33 109.54595
0.178294 24.32 109.92591
0.178573 146.59 109.15284
0.178851 -49.65 110.16452
0.17913 37.41 108.70119
0.179409 -155.3 109.61435
0.179687 82.82 109.48323
0.179966 83.73 109.204
0.180244 76.85 109.50987
0.180523 107.15 109.21943
0.180801 12.83 108.80745
0.18108 138.02 109.23851
0.181359 -21.73 109.00789
0.181637 -49.26 108.9937
0.181916 43.93 109.18791
0.182194 269.99 109.32471
0.182473 -69.69 110.15289
0.182751 -97.9 108.91711
0.18303 -12.93 109.91107
0.183309 -64.25 109.62251
0.183587 70.91 109.46127
0.183866 63.07 109.42737
0.184144 38.13 109.46379
0.184423 113.31 110.1494
0.184701 167.8 110.21362
0.18498 68.35 109.77244
0.185259 79.38 110.20677
0.185537 68.25 109.44286
0.185816 76.67 109.90173
0.186094 -72.79 109.85048
0.186373 84.85 109.8267
0.186651 222.05 109.82275
0.18693 171.71 109.14687
0.187209 100.79 109.22804
0.187487 -9.28 108.97652
0.187766 44.62 108.61154
0.188044 105.77 109.12407
0.188323 -74.2 108.9848
0.188601 78.54 108.31413
0.18888 1.37 108.92554
0.189159 19.01 107.45711
0.189437 54.83 108.00789
0.189716 57.06 107.9592
0.189994 137.78 107.49865
0.190273 27.89 107.8002
0.190551 162.02 107.07353
0.19083 -82.06 106.94221
0.191109 53.59 107.55188
0.191387 87.25 106.56781
0.191666 -195.46 107.93738
0.191944 227.48 106.50152
0.192223 50.29 106.75899
0.192501 -18.24 107.37976
0.19278 171.26 106.33654
0.193059 41.82 106.94292
0.193337 295.1 106.31095
0.193616 -50.36 106.65455
0.193894 -37.09 106.33774
0.194173 254.61 106.24585
0.194451 151.95 106.07022
0.19473 73.63 106.31257
0.195009 181.69 105.71565
0.195287 -109.83 106.50734
0.195566 -34.67 105.6049
0.195844 -16.04 106.43792
0.196123 120.07 106.90794
0.196401 142.24 108.54523
0.19668 5.66 109.5185
0.196959 13.11 108.75678
0.197237 -92.08 109.67266
0.197516 -62.55 110.12789
0.197794 77.64 110.50241
0.198073 -0.18 111.24729
0.198351 -189.75 110.91112
0.19863 126.28 111.55701
0.198909 -60.99 110.7271
0.199187 -142.87 111.16197
0.199466 35.96 112.10237
0.199744 106.87 111.46555
0.200023 147.84 112.87912
0.200301 189.28 112.97195
0.20058 -31.57 112.9742
0.200858 -186.73 113.85269
0.201137 205.64 113.06196
0.201416 113.26 113.39769
0.201694 12.38 114.24647
0.201973 144.4 114.47297
0.202251 -52.15 115.1981
0.20253 113.94 115.34463
0.202808 79.48 113.05881
0.203087 175.92 111.87812
0.203366 235.78 111.18737
0.203644 157.74 111.12238
0.203923 1.14 110.04639
0.204201 -7.64 110.07391
0.20448 -28.48 110.54923
0.204758 46.57 109.31436
0.205037 -5.18 108.89985
0.205316 327.12 109.06539
0.205594 23.52 108.91471
0.205873 114.08 108.77872
0.206151 196.37 108.01541
0.20643 -78.19 109.12818
0.206708 92.91 108.15444
0.206987 72.69 107.54579
0.207266 -34 107.59755
0.207544 195.11 107.49981
0.207823 -77.35 108.25668
0.208101 -46.29 107.15541
0.20838 -95.87 107.35758
0.208658 129.24 107.44658
0.208937 -57.41 106.36022
0.209216 -193.3 107.99004
