# Q [1/Ã…] I(Q) [a.u.] dI(Q) [a.u.]
0.00223785 90785 24930.51
0.00251642 57197 19250.056
0.00279499 88499 13640.615
0.00307356 113980 10575.219
0.00335213 73121 7646.0471
0.0036307 95708 6442.5396
0.00390927 80268.6 5002.8016
0.00418784 87827.2 4272.4681
0.00446641 77998.4 3716.4028
0.00474498 84011.5 3235.6759
0.00502355 86139 2757.1265
0.00530212 77989.8 2453.2367
0.00558069 80962.6 2142.9455
0.00585926 77897.4 1992.4286
0.00613783 81022.6 1787.0895
0.0064164 81132 1547.7222
0.00669497 79723.7 1542.3944
0.00697355 80526.68 1330.2933
0.00725212 81403.32 1299.2101
0.00753069 81547.27 1179.0605
0.00780926 80102.35 1121.3242
0.00808783 81276.35 1098.2079
0.0083664 80956.58 1015.7488
0.00864497 80613.18 980.42106
0.00892354 80579.71 927.55913
0.00920211 79063.89 879.31333
0.00948068 79057.4 891.1483
0.00975925 79972.66 820.41762
0.0100378 80530.6 815.82191
0.0103164 78818.12 784.33364
0.010595 77862.87 760.43466
0.0108735 79377.66 751.36143
0.0111521 79099.79 723.78092
0.0114307 78054.88 730.95523
0.0117092 79006.89 690.18072
0.0119878 78325.63 677.15429
0.0122664 78494.76 675.99989
0.012545 78995.11 649.24257
0.0128235 78537.81 652.73781
0.0131021 78509.6 638.08263
0.0133807 78673.01 620.14522
0.0136592 78267.95 616.95854
0.0139378 76996.56 593.81436
0.0142164 75745.07 596.99864
0.0144949 77019.49 586.52156
0.0147735 77599.92 578.87285
0.0150521 77421.71 572.28996
0.0153307 77360.72 560.14896
0.0156092 76504.11 555.09187
0.0158878 77024.32 553.09712
0.0161664 76394.04 538.26481
0.0164449 76061.33 540.44007
0.0167235 76179.47 522.52477
0.0170021 77089.7 524.34807
0.0172806 77278.59 523.63979
0.0175592 76256.04 516.95464
0.0178378 75493.22 507.31578
0.0181164 75208.08 498.10431
0.0183949 75185.73 494.66158
0.0186735 76150.42 490.48758
0.0189521 75482.63 497.03983
0.0192306 75416.64 504.0535
0.0195092 74865.38 504.66802
0.0197878 74722.23 498.41708
0.0200664 75990.15 503.99899
0.0203449 75092.62 501.15632
0.0206235 74187.36 497.69689
0.0209021 74771.56 495.31687
0.0211806 74242.45 493.68044
0.0214592 74437.63 496.06554
0.0217378 74146.45 488.86794
0.0220163 73890.13 489.52395
0.0222949 73533.63 489.11157
0.0225735 72385.2 483.52211
0.0228521 73160.56 483.9155
0.0231306 73653.27 480.18161
0.0234092 73784.18 481.31756
0.0236878 72912.42 483.55271
0.0239663 72436.41 474.85663
0.0242449 72115.06 472.54677
0.0245235 71874.97 468.00173
0.024802 71335.8 470.44281
0.0250806 72754.14 472.24942
0.0253592 71625.13 458.33117
0.0256378 72015.53 458.08101
0.0259163 71521.99 443.20264
0.0261949 70886.3 442.10571
0.0264735 70820 433.18109
0.026752 71590.16 422.46636
0.0270306 70483.78 422.82266
0.0273092 70138.02 419.11402
0.0275877 70739.64 414.22684
0.0278663 70374.29 411.40725
0.0281449 69440.53 404.25325
0.0284235 70038.73 408.78371
0.028702 69645.15 400.77384
0.0289806 68676.93 393.63783
0.0292592 68985.57 395.33308
0.0295377 69352.87 390.12697
0.0298163 69057.59 387.37078
0.0300949 68868.54 383.28924
0.0303735 68587.45 379.30888
0.030652 68696.65 382.28806
0.0309306 67754.59 375.99708
0.0312092 67805.55 372.37998
0.0314877 67981.84 373.4074
0.0317663 67243.31 367.77657
0.0320449 67308.28 366.48022
0.0323234 66899.92 364.69124
0.032602 66047.1 358.45014
0.0328806 65921.37 357.34513
0.0331592 66192.45 355.99777
0.0334377 66280.89 355.24241
0.0337163 65809.02 358.7749
0.0339949 65599.18 356.8395
0.0342734 65261.64 365.07687
0.034552 64638.99 361.80203
0.0348306 65276.39 358.56482
0.0351091 64659.14 361.72837
0.0353877 64278.64 360.68622
0.0356663 63616.88 364.16473
0.0359449 63430.36 356.42268
0.0362234 64050.54 356.46473
0.036502 63899.66 359.14948
0.0367806 63416.34 356.44946
0.0370591 63648.57 361.96894
0.0373377 62950.23 353.30787
0.0376163 62443.02 354.39231
0.0378949 62101.62 352.97138
0.0381734 62535.23 349.5039
0.038452 61953.16 355.77013
0.0387306 61307.77 346.57978
0.0390091 61342.05 352.24053
0.0392877 61211.23 350.26325
0.0395663 61214.58 344.20906
0.0398448 60970.15 347.80615
0.0401234 60588.9 345.11151
0.040402 60278.65 347.75209
0.0406806 59649.09 344.15737
0.0409591 59830.81 337.3871
0.0412377 59205.83 341.34737
0.0415163 59090.51 336.81743
0.0417948 58934.18 338.78102
0.0420734 59110.38 337.19816
0.042352 58639.23 337.09421
0.0426305 58126.6 342.32932
0.0429091 57890.69 337.70543
0.0431877 57895.93 343.73049
0.0434663 58310.47 342.32817
0.0437448 56728.72 346.48746
0.0440234 57036.22 348.1615
0.044302 56762.14 343.31559
0.0445805 56692.78 345.66362
0.0448591 56104.56 344.79646
0.0451377 55597.26 349.09527
0.0454163 55569.86 347.89442
0.0456948 55394.51 346.35859
0.0459734 55247.39 348.5616
0.046252 55504.65 348.8872
0.0465305 54384.67 341.97378
0.0468091 54893.77 341.34228
0.0470877 54603.05 336.74677
0.0473662 53795.31 331.44603
0.0476448 54139.01 331.85588
0.0479234 53712.38 327.39739
0.048202 52483.35 325.18284
0.0484805 52932.23 322.79613
0.0487591 52823.13 319.89204
0.0490377 51738.54 319.78795
0.0493162 52344.28 315.59905
0.0495948 52176.21 316.12255
0.0498734 51071 311.23903
0.0501519 51173.02 311.59089
0.0504305 50873.47 314.27458
0.0507091 51016.52 311.37898
0.0509877 50341.33 311.73526
0.0512662 50240.91 308.62005
0.0515448 49477.9 307.32536
0.0518234 50183.88 310.31159
0.0521019 49307.9 304.94533
0.0523805 49661.17 307.50334
0.0526591 49196.95 307.60469
0.0529376 48950.82 303.06639
0.0532162 48495.76 305.27882
0.0534948 48415.17 303.43309
0.0537734 48100.4 301.67731
0.0540519 47533.62 298.46301
0.0543305 47399.68 298.6396
0.0546091 46758.81 297.2885
0.0548876 46371.87 289.99385
0.0551662 46690.21 292.1775
0.0554448 46191.75 291.90327
0.0557234 45918.45 286.59655
0.0560019 45498.18 289.71065
0.0562805 45666.49 284.40786
0.0565591 45071.69 284.83977
0.0568376 45424.06 285.97913
0.0571162 44721.81 282.59716
0.0573948 44886.19 284.10314
0.0576733 43957.59 279.31556
0.0579519 43748.89 280.98497
0.0582305 44005.66 279.7289
0.0585091 43944 278.47534
0.0587876 43880.1 278.71481
0.0590662 42539.57 276.71884
0.0593448 42811.58 276.84883
0.0596233 42077.69 273.38656
0.0599019 42520.74 273.51595
0.0601805 42200.4 274.39347
0.060459 42372.27 272.49002
0.0607376 41613.63 267.6823
0.0610162 41026.85 269.54104
0.0612948 40631.53 269.16255
0.0615733 40966.22 268.69363
0.0618519 40803.19 266.52833
0.0621305 39929.76 264.69077
0.062409 39858.73 264.01851
0.0626876 39953.02 266.7475
0.0629662 39725.79 263.20147
0.0632448 39028.03 262.0956
0.0635233 39426.4 261.48279
0.0638019 38775.13 259.66458
0.0640805 38945.31 261.19882
0.064359 38230.67 257.13195
0.0646376 37588.9 257.88554
0.0649162 37505.61 256.88982
0.0651947 37622.88 256.75996
0.0654733 36707.61 253.01674
0.0657519 36704.9 252.56861
0.0660305 36739.8 253.95458
0.066309 36272.52 251.8251
0.0665876 36138.13 250.94455
0.0668662 36517.14 249.55361
0.0671447 35513.07 247.73042
0.0674233 35649.96 250.32623
0.0677019 34989.2 245.97702
0.0679804 35127.04 247.34117
0.068259 34963.41 246.30939
0.0685376 34575.62 244.55643
0.0688162 34433.05 243.72187
0.0690947 34294.14 241.10925
0.0693733 33693.69 243.09135
0.0696519 33806.7 242.28628
0.0699304 33225.26 240.59492
0.070209 33129.54 239.8617
0.0704876 33111.35 235.70448
0.0707662 32493.43 238.60549
0.0710447 32215.38 236.80935
0.0713233 31823.1 235.5299
0.0716019 31848.31 235.5449
0.0718804 32086.1 233.65719
0.072159 31716.06 235.58732
0.0724376 31678.21 233.23998
0.0727161 31077.7 231.64288
0.0729947 30414.14 231.62911
0.0732733 30662.09 231.85974
0.0735519 30287.13 228.99099
0.0738304 30315.49 228.03022
0.074109 29843.51 227.12035
0.0743876 29921.66 228.01778
0.0746661 29560.55 226.44068
0.0749447 29105.12 223.37686
0.0752233 29000.52 224.36018
0.0755018 28604.72 223.9469
0.0757804 28913.28 224.27299
0.076059 28155.48 223.07312
0.0763376 28451.42 222.96783
0.0766161 27995.41 220.49306
0.0768947 27496.84 220.21716
0.0771733 27248.17 218.95748
0.0774518 27140.77 217.5287
0.0777304 26866.82 216.48849
0.078009 26736.97 222.61411
0.0782875 26329.45 221.34318
0.0785661 26683.81 223.12344
0.0788447 26285.91 223.78796
0.0791233 26565.66 225.90522
0.0794018 25756.43 228.24705
0.0796804 25590.49 224.41552
0.079959 25292.52 227.1446
0.0802375 24973.41 226.78495
0.0805161 25072.32 227.72543
0.0807947 24487.17 228.08331
0.0810733 24872.71 226.72793
0.0813518 23996.27 228.30118
0.0816304 24085.82 227.85585
0.081909 23829.01 227.30052
0.0821875 23895.05 228.20604
0.0824661 23237.09 227.96102
0.0827447 23191.11 228.60081
0.0830232 23161.83 228.75007
0.0833018 23101.37 226.64675
0.0835804 22493.18 226.83585
0.083859 22184.58 228.46779
0.0841375 22212.78 228.52382
0.0844161 22170.33 226.9808
0.0846947 21977.34 222.41899
0.0849732 21955.89 220.73688
0.0852518 21456.37 216.99176
0.0855304 21535.36 215.94836
0.0858089 20884.84 212.4072
0.0860875 20988.05 212.62644
0.0863661 20882.4 210.90293
0.0866447 20897.45 209.86966
0.0869232 20314.86 208.20562
0.0872018 20517.14 208.04136
0.0874804 20488.99 207.99811
0.0877589 19615.03 204.76643
0.0880375 19879.7 202.99469
0.0883161 19543.19 201.98588
0.0885947 19199.6 202.25192
0.0888732 19347.69 201.16824
0.0891518 18906.52 199.13437
0.0894304 18700.21 198.01501
0.0897089 18696.36 197.269
0.0899875 18365.46 196.56763
0.0902661 18282.93 195.09659
0.0905446 18298.69 193.63734
0.0908232 17805.55 193.98315
0.0911018 17873.76 192.76491
0.0913804 17776.16 191.20968
0.0916589 17346.18 190.43332
0.0919375 17270.22 193.40319
0.0922161 16738.54 197.49062
0.0924946 16548.32 195.12964
0.0927732 16778.97 196.72708
0.0930518 16537.15 197.68623
0.0933303 16227.14 198.00358
0.0936089 16087.24 198.76749
0.0938875 16045.55 199.00616
0.0941661 15453.89 198.4791
0.0944446 15662.37 198.96194
0.0947232 15606.06 197.79936
0.0950018 15609.63 199.3432
0.0952803 15296.55 197.55433
0.0955589 15412.84 199.77919
0.0958375 14877.66 195.80548
0.0961161 14911.55 191.49751
0.0963946 14692.43 190.66092
0.0966732 14151.51 188.36961
0.0969518 14617.91 189.22003
0.0972303 14589.31 187.16017
0.0975089 14347.02 185.74802
0.0977875 13932.23 184.35398
0.098066 13614.28 183.7179
0.0983446 13665 184.18235
0.0986232 13640.78 181.30119
0.0989018 13425.9 183.5078
0.0991803 13187.41 181.44946
0.0994589 13167.37 179.84851
0.0997375 12961.06 179.17375
0.100016 12685.05 177.78782
0.100295 12804.98 177.45358
0.100573 12795.44 176.89179
0.100852 12679.78 175.73191
0.10113 12658.03 174.99821
0.101409 12279.53 173.44925
0.101687 11966.03 172.76749
0.101966 12375.87 172.47576
0.102245 12067.64 172.46841
0.102523 11915.96 170.88261
0.102802 11581.53 171.1189
0.10308 11808.42 170.03013
0.103359 11427.64 170.26117
0.103637 11432.85 169.79455
0.103916 11093.46 168.13774
0.104195 11114.98 168.40958
0.104473 11102.22 167.05822
0.104752 10740.5 167.32917
0.10503 10656.73 167.56174
0.105309 10427.33 165.35703
0.105587 10475.85 166.22454
0.105866 10381.26 164.41285
0.106145 10163.54 164.51218
0.106423 9915.58 163.94912
0.106702 10209.47 163.63596
0.10698 10202.08 165.27076
0.107259 9711.75 161.47882
0.107537 9854.79 163.04772
0.107816 9429.06 161.93314
0.108095 9348.84 160.56076
0.108373 9400.75 160.88743
0.108652 9107.51 160.52465
0.10893 8925.84 159.98452
0.109209 9007.6 159.13068
0.109487 8811.83 158.70475
0.109766 8753.74 159.67902
0.110045 8748.09 158.94216
0.110323 8672.26 158.19499
0.110602 8241.53 157.2975
0.11088 8556.61 157.65408
0.111159 8397.24 158.17436
0.111437 8324.9 155.17146
0.111716 8400.2 156.82891
0.111995 7975.63 155.98113
0.112273 7940.95 154.13801
0.112552 7821.57 155.53011
0.11283 7694.58 153.18348
0.113109 7624.08 154.07639
0.113387 7709.09 154.24069
0.113666 7422.8 152.87966
0.113945 7255.41 152.39652
0.114223 7530.81 152.2659
0.114502 6989.94 151.9524
0.11478 6940.79 151.57475
0.115059 6843.46 150.72487
0.115337 7102.62 151.85225
0.115616 6940.01 150.903
0.115895 6754.71 150.30673
0.116173 6692.83 150.23286
0.116452 6494.09 149.88234
0.11673 6651.34 149.83242
0.117009 6170 149.04009
0.117287 6268.01 147.49212
0.117566 6359.71 148.91292
0.117845 6237.39 147.4268
0.118123 6221.52 147.50148
0.118402 6381.91 146.78828
0.11868 6125.73 145.83183
0.118959 5904.54 146.31193
0.119237 5846.17 145.91475
0.119516 5645.21 145.19541
0.119795 5596.24 144.76883
0.120073 5438.34 143.36424
0.120352 5416.51 144.28884
0.12063 5682.66 143.64959
0.120909 5519.98 142.896
0.121187 5627.67 143.47882
0.121466 5695.05 142.43852
0.121745 5438.77 142.38757
0.122023 5292.57 141.00225
0.122302 5399.72 140.31061
0.12258 5117.9 140.55237
0.122859 5020.4 140.61778
0.123137 4740.63 141.0948
0.123416 5114.87 139.33816
0.123695 5023.09 138.76924
0.123973 4752.7 139.01258
0.124252 4637.73 137.46837
0.12453 4463.77 138.63824
0.124809 4549.41 137.13987
0.125087 4574.49 138.74409
0.125366 4469.63 137.3315
0.125645 4236.86 136.59893
0.125923 4511.21 137.84457
0.126202 4329.59 135.96961
0.12648 4229.54 137.09494
0.126759 4002.75 137.24358
0.127037 4211.92 136.6863
0.127316 4113.55 135.93077
0.127594 4083.55 135.56614
0.127873 3922.21 136.47207
0.128152 3978.28 136.2751
0.12843 3904.53 135.30638
0.128709 3876.28 135.32021
0.128987 3947.91 135.11866
0.129266 3744.02 134.48622
0.129544 3637.57 134.50988
0.129823 3873.87 133.90591
0.130102 3410.75 134.50772
0.13038 3624.61 133.13777
0.130659 3507.22 132.61349
0.130937 3480.75 132.84923
0.131216 3645.54 132.7925
0.131494 3330.82 132.7961
0.131773 3461.12 132.54509
0.132052 3236.25 130.80327
0.13233 3342.71 132.27193
0.132609 3246.74 131.68716
0.132887 3212.89 131.13478
0.133166 3412.05 131.20714
0.133444 3218.27 130.95102
0.133723 3050.67 130.61132
0.134002 3076.95 130.04429
0.13428 3016.57 129.75021
0.134559 3014.82 130.36187
0.134837 2769.01 129.0595
0.135116 2944.58 130.40548
0.135394 3014.69 128.75027
0.135673 2820.68 129.07034
0.135952 2821.42 129.70626
0.13623 3006.5 128.05386
0.136509 2676.48 129.24963
0.136787 2458.79 127.84862
0.137066 2519.8 129.90941
0.137344 2611.45 131.45006
0.137623 2600.42 131.90724
0.137902 2581.03 132.91976
0.13818 2455.38 133.77359
0.138459 2380.25 133.09571
0.138737 2170.24 134.53954
0.139016 2416.06 133.91786
0.139294 2364.29 135.62937
0.139573 2455.44 134.88727
0.139852 2499.16 135.1136
0.14013 2282.06 136.7395
0.140409 2265.84 135.22845
0.140687 2032.37 136.62194
0.140966 2113.85 136.34022
0.141244 1932.04 136.82082
0.141523 2378.85 137.29318
0.141802 2157.8 136.95904
0.14208 2298.73 137.55623
0.142359 2038.44 137.2191
0.142637 2075.12 138.1312
0.142916 1920.68 138.05063
0.143194 2095.3 137.18017
0.143473 1962.03 138.31406
0.143752 1796.36 135.37228
0.14403 1860.94 134.50126
0.144309 1864.11 132.52175
0.144587 2018.86 131.36549
0.144866 2058.16 131.03226
0.145144 1997.54 129.94456
0.145423 1670.96 129.77096
0.145702 1539.59 129.14132
0.14598 1753.69 129.06642
0.146259 1594.83 127.74778
0.146537 1661.94 128.23968
0.146816 1798.07 127.54315
0.147094 1402.23 127.04157
0.147373 1497.78 126.26267
0.147652 1606.28 127.19292
0.14793 1798.64 126.12731
0.148209 1741.88 126.12531
0.148487 1492.41 125.93218
0.148766 1518.24 125.48821
0.149044 1563.42 124.98446
0.149323 1332.36 124.4283
0.149602 1724.36 125.28452
0.14988 1375.37 124.66768
0.150159 1529.89 124.13287
0.150437 1308.26 124.24554
0.150716 1277.37 125.07971
0.150994 1535.2 123.51147
0.151273 1495.88 123.98665
0.151552 1337.34 124.14074
0.15183 1457.49 123.06457
0.152109 1523.1 123.93685
0.152387 1314.71 122.28737
0.152666 1485.92 123.33441
0.152944 1443.21 122.69974
0.153223 1382.19 121.68584
0.153502 1194.88 122.68334
0.15378 1401.51 121.65054
0.154059 1241.11 122.11638
0.154337 1354.43 121.27784
0.154616 1364.89 120.97506
0.154894 1132.34 121.30048
0.155173 1361.14 120.6526
0.155452 1327.31 121.78332
0.15573 1118.3 120.8924
0.156009 1210.8 120.54587
0.156287 1317.15 120.41558
0.156566 1236.36 119.12166
0.156844 1248.7 120.06591
0.157123 1207.07 120.44846
0.157402 1118.18 119.37527
0.15768 1220.62 118.9302
0.157959 981.56 118.52611
0.158237 1083.92 119.48955
0.158516 921.19 119.1735
0.158794 1253.93 118.95592
0.159073 1257.96 118.67372
0.159352 1123.93 118.53762
0.15963 1277 118.36127
0.159909 1120.37 118.39637
0.160187 1059.68 117.80329
0.160466 961.69 118.68179
0.160744 875.49 118.41458
0.161023 1068.09 117.70389
0.161302 724.95 117.56831
0.16158 917.97 117.08066
0.161859 1116.63 117.5602
0.162137 1171.9 118.14435
0.162416 1208.91 116.63936
0.162694 1115.61 117.09272
0.162973 903.65 116.60345
0.163252 1031.88 116.02524
0.16353 868 116.53626
0.163809 1018.43 116.16112
0.164087 1046.07 116.3948
0.164366 931 115.39745
0.164644 944.01 115.5671
0.164923 853.27 115.97546
0.165201 1016.27 114.89292
0.16548 944.04 116.06638
0.165759 742.18 115.16421
0.166037 701.61 114.72535
0.166316 790.75 115.29647
0.166594 996.32 114.74143
0.166873 892.97 115.05494
0.167151 953.41 114.12612
0.16743 802.72 114.10665
0.167709 926.42 114.10292
0.167987 1107.26 113.61008
0.168266 859.97 113.64888
0.168544 642.51 113.77587
0.168823 709.52 113.75138
0.169101 787.11 113.36646
0.16938 823.62 113.27167
0.169659 730.1 113.7228
0.169937 913.04 113.45352
0.170216 783.9 113.33723
0.170494 792.67 113.19619
0.170773 940.2 112.5899
0.171051 875.87 112.94578
0.17133 833.44 112.80536
0.171609 710.43 112.61618
0.171887 779.7 112.44305
0.172166 864.48 112.84508
0.172444 983.13 113.04878
0.172723 986.06 112.53152
0.173001 946.71 112.6319
0.17328 899 112.61017
0.173559 603.01 112.81503
0.173837 726.7 111.71459
0.174116 1051.08 112.47596
0.174394 868.94 111.86371
0.174673 929.75 112.80041
0.174951 986.13 112.11662
0.17523 735.98 111.82322
0.175509 754.49 111.87407
0.175787 746.1 111.58911
0.176066 899.49 111.39099
0.176344 740.57 111.36545
0.176623 678.42 111.50788
0.176901 817.6 111.69247
0.17718 761.23 111.34971
0.177459 837.19 111.6092
0.177737 940.13 111.99614
0.178016 603.5 110.91667
0.178294 774.58 111.43137
0.178573 877.45 110.88665
0.178851 855.67 111.53897
0.17913 688.52 110.09344
0.179409 754.61 110.59692
0.179687 742.56 110.57073
0.179966 593.12 110.62167
0.180244 656.31 110.58659
0.180523 696.25 109.89271
0.180801 845.24 110.24744
0.18108 865.26 110.53333
0.181359 750.52 110.82351
0.181637 630.94 110.11548
0.181916 785.94 109.79352
0.182194 814.96 110.12149
0.182473 784.99 110.89793
0.182751 682.61 109.96985
0.18303 637.01 110.80134
0.183309 738.56 110.67463
0.183587 619.12 110.75082
0.183866 728.17 110.76666
0.184144 661.03 110.32766
0.184423 846.25 110.79368
0.184701 630.33 110.71281
0.18498 858.8 111.50621
0.185259 550.51 110.81199
0.185537 762.62 110.70238
0.185816 561.19 111.25642
0.186094 768.7 110.85904
0.186373 722.66 110.17652
0.186651 865.15 110.59191
0.18693 678.69 109.85607
0.187209 649.06 109.76348
0.187487 827.46 110.32858
0.187766 823.65 110.0071
0.188044 642.49 109.74274
0.188323 835.06 110.13659
0.188601 861.17 109.1981
0.18888 829.52 109.80386
0.189159 567.83 108.81166
0.189437 685.6 109.53537
0.189716 716.3 108.9412
0.189994 917.12 108.10587
0.190273 809.95 108.89587
0.190551 844.58 108.42835
0.19083 721.33 108.26769
0.191109 930.64 108.77708
0.191387 852.65 107.37906
0.191666 461.6 108.38112
0.191944 834.97 108.01902
0.192223 718.28 107.6571
0.192501 730.53 108.35662
0.19278 886.12 107.21872
0.193059 942.89 107.92639
0.193337 584.19 107.13992
0.193616 774.33 107.54793
0.193894 829.22 107.82908
0.194173 650.71 106.4441
0.194451 755.04 107.49486
0.19473 812.1 107.49738
0.195009 688.11 106.63424
0.195287 531.69 106.94474
0.195566 739.44 106.18511
0.195844 879.94 107.33153
0.196123 722.97 107.82297
0.196401 741.11 108.765
0.19668 679.75 110.56781
0.196959 777.87 109.89067
0.197237 780.2 111.14989
0.197516 759.05 111.08397
0.197794 795.9 111.25667
0.198073 650.4 112.16225
0.198351 805.47 111.93068
0.19863 602.46 112.70417
0.198909 678.44 112.33125
0.199187 800.72 112.46341
0.199466 711.34 114.25908
0.199744 695.49 112.87008
0.200023 719.46 113.85223
0.200301 567.53 113.54328
0.20058 654.89 115.06001
0.200858 855.17 115.59795
0.201137 722.28 114.46412
0.201416 929.24 115.44982
0.201694 657.87 115.32427
0.201973 896.64 116.13674
0.202251 573.78 116.10055
0.20253 644.92 116.13111
0.202808 669.1 114.27072
0.203087 758.61 114.10302
0.203366 769.32 112.14865
0.203644 546.95 112.2185
0.203923 595.97 111.41253
0.204201 786.49 111.2837
0.20448 672.7 111.63373
