# Q [1/Ã…] I(Q) [a.u.] dI(Q) [a.u.]
0.00223785 -12917 24762.124
0.00251642 3615 19159.149
0.00279499 7170 13575.936
0.00307356 31778 10463.471
0.00335213 21551 7581.3056
0.0036307 26042 6351.7607
0.00390927 26043.2 4915.477
0.00418784 28372.5 4168.4735
0.00446641 17811.3 3614.195
0.00474498 27506.9 3135.1354
0.00502355 23686.4 2639.5874
0.00530212 23632.1 2339.4815
0.00558069 25814.4 2011.1742
0.00585926 28309.6 1865.1295
0.00613783 25059.5 1647.7582
0.0064164 28205.4 1413.324
0.00669497 26972.5 1399.6168
0.00697355 28061.67 1190.6123
0.00725212 25795.65 1135.6219
0.00753069 26868.08 1020.6419
0.00780926 25937.08 955.60394
0.00808783 25038.9 925.55882
0.0083664 25774.05 848.30261
0.00864497 26802.15 805.40617
0.00892354 26521.81 757.36425
0.00920211 25581.68 715.42095
0.00948068 26982.66 714.4206
0.00975925 25659.3 650.45512
0.0100378 28128.11 641.10403
0.0103164 25007.09 611.48788
0.010595 25968.65 590.88524
0.0108735 26573.53 583.72305
0.0111521 25676.06 555.49668
0.0114307 25896.78 561.17803
0.0117092 25672.03 526.755
0.0119878 25979.37 515.38353
0.0122664 25520.42 504.40824
0.012545 25682.11 484.82162
0.0128235 25897.75 487.28762
0.0131021 25664.26 471.94451
0.0133807 25601.61 458.44432
0.0136592 26110.92 455.88844
0.0139378 26578.53 439.46694
0.0142164 24561.43 438.81269
0.0144949 26217.62 427.77034
0.0147735 25369.99 419.9469
0.0150521 25721 418.65231
0.0153307 26005.3 407.06327
0.0156092 25645.01 406.33921
0.0158878 25283.06 399.69367
0.0161664 25833.78 390.70346
0.0164449 25784.79 392.5964
0.0167235 25555.76 376.49881
0.0170021 25290.87 377.00729
0.0172806 24960.32 374.57426
0.0175592 24702.51 369.23
0.0178378 25110.64 364.40788
0.0181164 24976.18 355.3448
0.0183949 25281.39 354.53399
0.0186735 24872.92 349.23532
0.0189521 24181.33 354.80071
0.0192306 25624.68 362.90701
0.0195092 25019.2 358.50193
0.0197878 24453.95 352.5754
0.0200664 24534.19 356.72035
0.0203449 24563.36 354.4855
0.0206235 24421.84 353.77516
0.0209021 24677.39 351.47296
0.0211806 24353.86 350.64186
0.0214592 24678.08 352.69256
0.0217378 25141.66 348.69902
0.0220163 24013.53 345.1032
0.0222949 24002.29 345.47715
0.0225735 24708.19 344.79874
0.0228521 23754.8 343.49587
0.0231306 24120.08 340.01922
0.0234092 25084.73 343.4366
0.0236878 23880.71 341.0313
0.0239663 23714.19 334.59207
0.0242449 23475.39 335.56883
0.0245235 24117.09 333.18812
0.024802 24273.05 336.07886
0.0250806 23405.22 332.27523
0.0253592 23131.66 323.50355
0.0256378 23598.11 322.38791
0.0259163 23668.22 313.67705
0.0261949 23150.91 312.14097
0.0264735 23244.26 305.80779
0.026752 23307.72 297.79216
0.0270306 23201.13 301.55945
0.0273092 23644.67 298.10354
0.0275877 23004.09 292.22154
0.0278663 22915.5 290.92398
0.0281449 22891.57 287.03219
0.0284235 23094.12 289.92947
0.028702 22778.69 283.05963
0.0289806 22700.28 278.45683
0.0292592 23116.27 280.19357
0.0295377 22410.78 275.59662
0.0298163 22471.03 272.57783
0.0300949 22554.17 272.33662
0.0303735 21993.12 270.09117
0.030652 22280.5 270.2924
0.0309306 22415.91 267.54121
0.0312092 22004.02 263.03121
0.0314877 22264.49 264.70123
0.0317663 21819.12 259.38402
0.0320449 21962.36 260.2809
0.0323234 22133.05 260.45964
0.032602 21880.26 254.66941
0.0328806 21856.6 254.57239
0.0331592 21672.72 252.66453
0.0334377 21603.95 252.73111
0.0337163 22000.5 255.79292
0.0339949 22043.21 255.41641
0.0342734 21380.81 260.43936
0.034552 21310.65 256.79815
0.0348306 21644.89 256.02346
0.0351091 21392.97 255.97813
0.0353877 20726.15 257.99894
0.0356663 20954.64 259.95622
0.0359449 21089.99 254.467
0.0362234 20993.9 254.64309
0.036502 21194.51 256.79652
0.0367806 21119.4 255.48935
0.0370591 20537 257.15208
0.0373377 20737.68 252.57221
0.0376163 20669.98 253.56033
0.0378949 20540.26 252.5556
0.0381734 20221.99 250.68517
0.038452 19825.49 254.02847
0.0387306 20200.17 248.30736
0.0390091 20254.24 253.9444
0.0392877 20187.77 251.23239
0.0395663 20312.5 247.12849
0.0398448 19616.15 248.54617
0.0401234 19973.95 248.23573
0.040402 19908.52 250.51385
0.0406806 19719.62 247.77992
0.0409591 19335.98 242.09541
0.0412377 19688.04 246.9494
0.0415163 19858.82 243.79267
0.0417948 18948.13 243.66356
0.0420734 18861.56 242.0992
0.042352 19322.15 242.99747
0.0426305 18879.31 246.68112
0.0429091 19001.32 244.36872
0.0431877 18960.29 247.42256
0.0434663 19399.57 247.91345
0.0437448 18336.04 251.58596
0.0440234 18455.65 251.05786
0.044302 19040.99 249.24337
0.0445805 18924.44 252.37218
0.0448591 18128.14 249.60536
0.0451377 18812.26 255.49814
0.0454163 18198.25 253.51411
0.0456948 18674.47 252.25397
0.0459734 18255.4 252.17791
0.046252 17839.86 251.64624
0.0465305 18236.58 247.8577
0.0468091 18173.19 249.5565
0.0470877 17353.09 244.01565
0.0473662 17705.51 242.8331
0.0476448 17944.51 241.10684
0.0479234 17379.18 238.7716
0.048202 17504.95 239.0124
0.0484805 17215.91 235.49865
0.0487591 17532.97 233.38697
0.0490377 16724.14 233.25123
0.0493162 17028.83 230.21715
0.0495948 17118.62 231.91261
0.0498734 17183.51 228.73161
0.0501519 16620.63 228.94216
0.0504305 16809.32 231.98875
0.0507091 17002.05 228.29019
0.0509877 16668.21 228.87914
0.0512662 16131.53 225.848
0.0515448 16677.67 226.61396
0.0518234 16226.54 228.26724
0.0521019 16123.81 226.03178
0.0523805 15969.8 227.50175
0.0526591 16311.92 227.98817
0.0529376 15692.94 222.97333
0.0532162 15599.55 224.37245
0.0534948 15948.87 224.12244
0.0537734 15488.54 222.19681
0.0540519 15249.52 220.87951
0.0543305 15575.71 221.85142
0.0546091 15348.28 220.78896
0.0548876 15277.38 217.04292
0.0551662 15405.24 217.54742
0.0554448 15162.75 217.14374
0.0557234 15002.78 215.22075
0.0560019 14984.57 215.2403
0.0562805 14970.66 212.36729
0.0565591 14746.08 212.02205
0.0568376 15304.14 213.37367
0.0571162 14898.18 211.34792
0.0573948 14266.46 210.70661
0.0576733 14500.78 209.44554
0.0579519 14304.86 210.92391
0.0582305 14071.8 209.02283
0.0585091 14561.12 209.03255
0.0587876 14258.79 208.34709
0.0590662 14139.26 208.64481
0.0593448 14069.58 207.96099
0.0596233 13593.69 206.36259
0.0599019 13344.7 205.15522
0.0601805 13900.52 207.33654
0.060459 13401.66 205.34794
0.0607376 13783.92 203.19991
0.0610162 13789.58 202.96471
0.0612948 13457.52 204.29092
0.0615733 13587.89 203.4117
0.0618519 13357.72 201.43197
0.0621305 12837.41 199.9425
0.062409 13169.99 200.0854
0.0626876 12695.59 201.87249
0.0629662 13008.99 200.16148
0.0632448 12887.46 199.33904
0.0635233 12837.22 197.91889
0.0638019 12248.78 197.98565
0.0640805 12580.06 198.25082
0.064359 12449.72 195.81303
0.0646376 12343.94 197.07773
0.0649162 12454.1 195.93651
0.0651947 12408.73 196.65797
0.0654733 12149.44 194.11496
0.0657519 12101.12 193.39219
0.0660305 12288.24 194.21182
0.066309 12081.94 192.55219
0.0665876 12059.84 192.30172
0.0668662 11764.65 191.39678
0.0671447 11823.45 191.73064
0.0674233 11645.06 192.67114
0.0677019 11533.44 190.28459
0.0679804 11729.67 190.9084
0.068259 10810.34 190.36906
0.0685376 11353.94 189.82468
0.0688162 11161.49 188.9432
0.0690947 11190.85 187.42526
0.0693733 10903.59 188.25717
0.0696519 11052.35 187.28801
0.0699304 10885.46 186.88735
0.070209 10460.99 186.13426
0.0704876 10982.1 184.43223
0.0707662 10579.93 186.50613
0.0710447 10254.1 183.93348
0.0713233 10394.01 183.9086
0.0716019 10456.88 184.57469
0.0718804 10191.23 181.92732
0.072159 10238.96 183.56464
0.0724376 10129.64 182.61483
0.0727161 10382.59 181.14926
0.0729947 9804.45 181.35755
0.0732733 9984.53 181.69033
0.0735519 9964.08 180.06401
0.0738304 9886.48 180.90011
0.074109 9750.27 179.37757
0.0743876 9719.91 178.96967
0.0746661 9341.13 177.87347
0.0749447 9534.34 177.12814
0.0752233 9419.68 177.28886
0.0755018 9249.57 176.97844
0.0757804 9597.08 178.05139
0.076059 9516.7 177.47862
0.0763376 9342.87 176.25813
0.0766161 9297.8 175.19122
0.0768947 8947.35 175.71684
0.0771733 9164.67 175.43427
0.0774518 8979.85 173.56441
0.0777304 8783.68 172.55254
0.078009 8833.57 178.5714
0.0782875 8390.63 177.61978
0.0785661 8466.35 178.09312
0.0788447 8624.72 179.95893
0.0791233 8516.52 181.04783
0.0794018 8235.77 183.93579
0.0796804 8237.9 180.90108
0.079959 8201.46 183.29182
0.0802375 8474.91 181.77375
0.0805161 8100.71 183.25663
0.0807947 7867.7 184.48112
0.0810733 8119.66 183.09133
0.0813518 7701.19 185.08487
0.0816304 7440.67 184.45386
0.081909 7678.42 185.08096
0.0821875 7395.71 185.04113
0.0824661 7450.88 184.26352
0.0827447 7736.93 187.13967
0.0830232 7556.39 185.99284
0.0833018 7037.51 184.47363
0.0835804 7587.89 186.16151
0.083859 6934.37 186.95063
0.0841375 7065.78 185.70904
0.0844161 7326.05 184.86388
0.0846947 7365.41 181.94722
0.0849732 7217.18 181.42477
0.0852518 6626.17 179.00939
0.0855304 6958.2 177.46232
0.0858089 6810.58 174.65054
0.0860875 6685.56 174.7942
0.0863661 6550.5 173.4055
0.0866447 6646.62 172.91009
0.0869232 6633.52 172.32098
0.0872018 6365.28 170.48864
0.0874804 6338.28 171.33357
0.0877589 6393.74 170.18703
0.0880375 6317.18 168.32913
0.0883161 6376.1 168.53223
0.0885947 6172.73 168.13221
0.0888732 6289.82 168.4072
0.0891518 5945.66 166.25962
0.0894304 6037.63 166.18991
0.0897089 6184.36 165.34314
0.0899875 6105.39 164.75
0.0902661 6148.59 164.04475
0.0905446 5637.32 162.76178
0.0908232 5861.05 162.82872
0.0911018 5957.87 161.42745
0.0913804 5925.67 160.87708
0.0916589 5907.85 160.71896
0.0919375 5847.5 163.45504
0.0922161 5351.47 166.58085
0.0924946 5441.08 165.86085
0.0927732 5396.36 167.45884
0.0930518 5269.56 166.3921
0.0933303 5339.85 168.52969
0.0936089 5247.54 168.86325
0.0938875 5253.27 169.65768
0.0941661 5150.34 169.43859
0.0944446 4964.56 168.70529
0.0947232 5247.68 168.28243
0.0950018 5045.12 169.12389
0.0952803 4832 169.23205
0.0955589 4930.45 170.93715
0.0958375 4847.18 167.59229
0.0961161 4959.49 165.837
0.0963946 4606.9 163.48458
0.0966732 4594.19 162.25477
0.0969518 4696.71 162.48862
0.0972303 4792.75 160.71644
0.0975089 4191.7 159.40289
0.0977875 4342.76 159.53496
0.098066 4613.27 159.35582
0.0983446 4458.13 158.17156
0.0986232 4360.75 157.56104
0.0989018 4137.34 159.10111
0.0991803 4387.17 157.53309
0.0994589 4344.75 155.46463
0.0997375 4425.48 156.14727
0.100016 4180.81 154.79304
0.100295 4251.35 154.74522
0.100573 4259.49 153.18239
0.100852 4106.09 153.35953
0.10113 4023.15 152.07515
0.101409 3998.29 151.33975
0.101687 3780.55 151.27153
0.101966 3811.6 150.95983
0.102245 4067.29 151.36653
0.102523 3945.05 150.7916
0.102802 4035 150.49344
0.10308 3610.22 149.43362
0.103359 3381.93 149.7303
0.103637 3517.22 149.17303
0.103916 3498.2 148.52663
0.104195 3518.81 149.01604
0.104473 3476.19 147.90178
0.104752 3824.89 148.0913
0.10503 3366.1 149.45837
0.105309 3126.28 146.81515
0.105587 3356.65 148.42986
0.105866 3486.74 145.48936
0.106145 3490.98 146.79424
0.106423 3102.26 146.69243
0.106702 3458.99 145.30412
0.10698 3161.41 147.16807
0.107259 2941.1 145.03268
0.107537 3257.46 145.69753
0.107816 3040.31 144.5347
0.108095 3046.06 144.1589
0.108373 3012.47 145.02819
0.108652 3018.49 144.02286
0.10893 2914.15 143.93608
0.109209 3114.91 143.96811
0.109487 2824.33 142.66218
0.109766 2845.03 143.86988
0.110045 2903.12 142.67598
0.110323 2621.76 141.94286
0.110602 2759.16 141.92861
0.11088 2602.78 142.05331
0.111159 2425.23 142.67797
0.111437 2629.58 141.12859
0.111716 2657.11 140.53436
0.111995 2709.25 140.59896
0.112273 2402.49 140.64218
0.112552 2494.47 140.86074
0.11283 2543.44 140.31524
0.113109 2528.96 140.52242
0.113387 2623.57 140.15599
0.113666 2261.8 139.28634
0.113945 2503.96 139.21627
0.114223 2216.26 138.77951
0.114502 2290.04 138.70868
0.11478 2424.21 139.75362
0.115059 2292.26 138.13009
0.115337 2207.53 138.22908
0.115616 2348.72 137.86563
0.115895 2233.81 137.2814
0.116173 2147.53 137.89659
0.116452 1913.82 136.55356
0.11673 1994.77 137.23659
0.117009 1987.57 137.29629
0.117287 1787.6 136.05563
0.117566 1850.08 136.88035
0.117845 1750.79 136.44903
0.118123 1846.86 136.55252
0.118402 1947.51 136.16016
0.11868 1742.2 134.83654
0.118959 2005.77 134.92789
0.119237 1588.73 134.24207
0.119516 1657.58 135.57134
0.119795 1632.79 134.02358
0.120073 1690.17 133.37406
0.120352 1621.23 134.35555
0.12063 1767.45 133.27033
0.120909 1904.75 133.25145
0.121187 1541.94 133.9556
0.121466 1713.61 132.45893
0.121745 1757.87 133.3316
0.122023 1564.04 131.44155
0.122302 1572.69 131.56763
0.12258 1572.43 131.6632
0.122859 1469.55 131.24694
0.123137 1790.38 132.01281
0.123416 1505.96 129.74614
0.123695 1618.18 130.13579
0.123973 1754.77 130.97097
0.124252 1585.26 129.42691
0.12453 1448.34 130.6507
0.124809 1612.11 130.16098
0.125087 1463.48 129.70179
0.125366 1354.85 129.91573
0.125645 1334.28 128.75417
0.125923 1318.96 129.93335
0.126202 1473.44 129.32332
0.12648 1187.63 129.6108
0.126759 1313.42 129.72342
0.127037 1344.76 129.11809
0.127316 1485.17 128.42649
0.127594 1146.51 128.85766
0.127873 1353.06 129.46832
0.128152 1313.95 128.66293
0.12843 1407.51 128.1975
0.128709 1327.87 128.66185
0.128987 1027.69 128.13886
0.129266 1209.74 127.57176
0.129544 890.71 127.27105
0.129823 1187.54 127.50465
0.130102 1012.35 127.9961
0.13038 1059.29 127.38261
0.130659 1101.17 126.69343
0.130937 899.43 127.07143
0.131216 957.85 126.22278
0.131494 1104.09 126.02041
0.131773 1101.91 127.00709
0.132052 947.09 125.35614
0.13233 1092.64 127.15244
0.132609 1183.25 125.63361
0.132887 908.34 125.92327
0.133166 865.72 125.84135
0.133444 1023.5 124.69894
0.133723 1041.1 125.53008
0.134002 932.81 123.96044
0.13428 1000.97 124.58017
0.134559 1018.16 125.21511
0.134837 876.4 124.37083
0.135116 633.46 124.27526
0.135394 886.24 123.20438
0.135673 832.25 123.7366
0.135952 873.81 124.6315
0.13623 639.23 123.34486
0.136509 602.22 123.78294
0.136787 858.99 123.66582
0.137066 775 125.07115
0.137344 779.67 127.10162
0.137623 1043.14 126.59345
0.137902 1142.17 128.64649
0.13818 774.1 128.39417
0.138459 780.76 128.39761
0.138737 614.13 130.10907
0.139016 788.82 129.34196
0.139294 770.52 131.70504
0.139573 736.16 130.79659
0.139852 829.46 130.63386
0.14013 722.17 131.99269
0.140409 653.89 130.88944
0.140687 888.07 131.69119
0.140966 709.23 132.29673
0.141244 610.91 131.45712
0.141523 854.72 133.53298
0.141802 545.21 132.65729
0.14208 563.63 133.5333
0.142359 657.69 132.11953
0.142637 613.78 133.43779
0.142916 616.74 134.15687
0.143194 730.01 133.77548
0.143473 475.85 134.16224
0.143752 632.89 130.91154
0.14403 525.96 131.1891
0.144309 577.66 128.46555
0.144587 552.94 127.54079
0.144866 596.21 127.12307
0.145144 677.25 126.58603
0.145423 542.84 126.59236
0.145702 368.92 125.9065
0.14598 367.56 125.10379
0.146259 322.37 125.08579
0.146537 534.63 125.44007
0.146816 561.26 124.8085
0.147094 312.92 124.83532
0.147373 527.3 123.56395
0.147652 282.21 123.28805
0.14793 557.9 123.06321
0.148209 475.55 123.18073
0.148487 314.81 122.82583
0.148766 584.23 122.41789
0.149044 411.79 121.94495
0.149323 533.09 121.552
0.149602 487.22 122.12252
0.14988 515.37 122.41106
0.150159 533 121.0724
0.150437 467.58 121.53383
0.150716 474.93 122.03053
0.150994 436.39 120.67232
0.151273 533.03 121.56138
0.151552 520.45 120.58257
0.15183 456.77 119.99555
0.152109 343.31 121.4067
0.152387 402.86 120.28038
0.152666 324.87 120.49423
0.152944 205.86 120.25642
0.153223 267.03 119.16808
0.153502 360.6 120.17752
0.15378 527.56 119.8891
0.154059 561.23 119.7233
0.154337 393.48 119.0447
0.154616 366.01 118.52596
0.154894 128.67 119.19209
0.155173 361.78 118.61055
0.155452 514.49 119.21368
0.15573 298.21 118.26845
0.156009 388.54 118.95372
0.156287 265.09 118.01282
0.156566 273.66 117.02687
0.156844 271.78 118.52881
0.157123 390.76 117.75864
0.157402 429.57 117.71674
0.15768 227.63 117.0824
0.157959 345.74 116.52024
0.158237 450.67 117.29616
0.158516 450.75 117.27199
0.158794 292.75 117.35975
0.159073 420.76 116.71685
0.159352 415.48 116.83841
0.15963 496.85 115.97888
0.159909 429.57 116.31277
0.160187 699.1 115.61138
0.160466 280.56 116.7657
0.160744 189.78 115.91129
0.161023 288.26 115.45505
0.161302 336.53 114.96025
0.16158 272.28 115.53192
0.161859 225.85 115.20217
0.162137 124.91 114.91613
0.162416 262.39 114.06602
0.162694 199.04 114.81761
0.162973 277.79 114.88952
0.163252 312.98 114.19042
0.16353 522.57 114.61996
0.163809 398.8 113.65469
0.164087 381.08 115.12039
0.164366 182.93 114.04606
0.164644 344.51 113.32897
0.164923 54.67 113.49943
0.165201 413.14 113.11688
0.16548 308.45 114.09332
0.165759 106.16 113.36295
0.166037 197.29 113.06547
0.166316 349.4 113.19426
0.166594 346.87 112.4677
0.166873 32.63 112.60001
0.167151 157.36 112.11872
0.16743 324.68 112.07176
0.167709 153.36 112.39963
0.167987 71.84 111.47039
0.168266 236.22 112.35022
0.168544 335.77 112.43324
0.168823 177.96 111.64133
0.169101 175.27 112.10275
0.16938 358.94 111.34976
0.169659 356.01 111.9761
0.169937 233.74 111.56036
0.170216 213.07 111.41917
0.170494 266.05 111.37647
0.170773 185.85 111.09023
0.171051 222.47 111.51409
0.17133 77.22 111.45024
0.171609 -37.75 111.05714
0.171887 165.5 111.15551
0.172166 272.13 111.58067
0.172444 199.63 111.62121
0.172723 129.27 111.46946
0.173001 247.96 111.16466
0.17328 540.18 111.05505
0.173559 278.72 111.5578
0.173837 206.46 110.47729
0.174116 20 111.17413
0.174394 89.79 110.65342
0.174673 368.56 110.66633
0.174951 276.34 110.67604
0.17523 491.68 110.05137
0.175509 91.07 111.04274
0.175787 293.25 110.11155
0.176066 355.83 110.06423
0.176344 270.03 109.96269
0.176623 57.49 109.69224
0.176901 94.36 110.31663
0.17718 233.23 109.24
0.177459 253.18 110.20963
0.177737 332.66 109.95182
0.178016 232.22 109.2152
0.178294 154.27 110.08527
0.178573 81.76 108.9081
0.178851 233.28 109.97028
0.17913 384.94 109.02642
0.179409 175.33 109.46487
0.179687 323.33 109.54446
0.179966 333.89 109.46019
0.180244 229.13 109.31268
0.180523 165.27 108.91297
0.180801 228.73 108.64062
0.18108 215.46 109.07036
0.181359 106.99 108.61536
0.181637 168.65 108.68515
0.181916 73.48 108.29831
0.182194 88.28 108.94597
0.182473 76.82 108.88071
0.182751 289.31 108.32422
0.18303 324.6 109.52487
0.183309 177.58 108.89324
0.183587 285.73 109.41734
0.183866 287.37 109.53814
0.184144 235.21 108.90364
0.184423 285.64 109.76711
0.184701 244.14 110.01143
0.18498 333.19 109.87865
0.185259 287.04 109.59866
0.185537 440.41 109.17172
0.185816 244.67 109.75769
0.186094 250.8 109.49767
0.186373 262.31 109.30497
0.186651 268.02 108.8709
0.18693 158.08 109.05812
0.187209 443.53 108.77761
0.187487 253.37 108.7832
0.187766 224.27 108.34469
0.188044 217.91 108.11786
0.188323 149.59 108.39646
0.188601 35.5 107.65482
0.18888 152.13 108.01822
0.189159 206.2 107.60247
0.189437 203.92 107.76226
0.189716 344.5 107.94492
0.189994 216.67 107.48857
0.190273 312.05 107.32419
0.190551 220.5 107.02166
0.19083 272.37 106.55788
0.191109 79.44 107.48939
0.191387 329.85 106.68948
0.191666 23.48 107.59714
0.191944 120.71 106.95502
0.192223 178.2 106.35389
0.192501 46.39 107.08734
0.19278 199.78 106.05337
0.193059 168.36 106.73589
0.193337 326.55 106.04806
0.193616 251.34 106.49142
0.193894 36.25 106.39269
0.194173 189.59 105.28871
0.194451 343.5 105.78502
0.19473 181.27 106.65164
0.195009 38.97 105.51731
0.195287 96.32 105.66538
0.195566 167.82 105.13979
0.195844 105.83 106.0655
0.196123 265.49 106.76735
0.196401 441.05 107.89319
0.19668 233.45 108.93831
0.196959 90.64 108.40327
0.197237 249.66 109.557
0.197516 136.17 109.86593
0.197794 213.46 109.62286
0.198073 194.63 111.20884
0.198351 85.84 110.71941
0.19863 163.72 111.04942
0.198909 232.38 111.23395
0.199187 121.48 110.65487
0.199466 427.22 112.4436
0.199744 131.35 111.67832
0.200023 328.22 111.99676
0.200301 217.72 112.59073
0.20058 211.25 112.92816
0.200858 200.63 113.65074
0.201137 157 112.57421
0.201416 393.97 113.4103
0.201694 186.31 113.90602
0.201973 122.03 113.78634
0.202251 183.96 114.66469
0.20253 240.37 115.38015
0.202808 45.65 112.62624
0.203087 38.75 112.36072
0.203366 449.71 111.44858
0.203644 141.61 110.9811
0.203923 241 109.92095
0.204201 249.06 109.46758
0.20448 256.04 110.37763
0.204758 267.26 108.60857
0.205037 204.37 108.86824
0.205316 273.39 108.84886
0.205594 133.6 108.59566
0.205873 354.08 108.23191
0.206151 189.92 107.33717
0.20643 108 107.79179
0.206708 193.14 107.47204
0.206987 308.92 106.96391
0.207266 271.95 107.46671
