# Q [1/Ã…] I(Q) [a.u.] dI(Q) [a.u.]
0.00223785 43360 24557.758
0.00251642 31453 18898.401
0.00279499 3889 13387.082
0.00307356 35323 10337.804
0.00335213 12359 7474.8568
0.0036307 14379 6257.7183
0.00390927 23482 4848.8053
0.00418784 21827.6 4116.2042
0.00446641 15841.9 3549.1195
0.00474498 18618.3 3083.7014
0.00502355 19318.4 2603.7776
0.00530212 17254.4 2301.3135
0.00558069 17406 1975.5804
0.00585926 18742.9 1820.817
0.00613783 18969.2 1618.343
0.0064164 17339.1 1380.8815
0.00669497 20838.3 1351.6914
0.00697355 20587.33 1151.3899
0.00725212 18418.72 1106.8538
0.00753069 19903.17 986.43234
0.00780926 19185.19 922.17606
0.00808783 20327.99 896.04744
0.0083664 18584.28 817.19751
0.00864497 19742.96 777.41885
0.00892354 19245.74 725.72746
0.00920211 19302.64 688.16555
0.00948068 20405.17 683.2464
0.00975925 19517.44 622.13258
0.0100378 18414.91 616.84023
0.0103164 18964.05 580.27788
0.010595 19606.18 561.57963
0.0108735 19175.95 553.54403
0.0111521 19567.22 526.01079
0.0114307 18642.62 526.34961
0.0117092 19800.14 495.4046
0.0119878 19806.04 482.7976
0.0122664 20009.61 476.91516
0.012545 19626.16 456.10415
0.0128235 19722.5 458.53572
0.0131021 19103.97 445.59403
0.0133807 19026.84 431.77527
0.0136592 18713.6 425.18668
0.0139378 20078.68 410.16397
0.0142164 19330.67 413.89352
0.0144949 19012.15 398.44594
0.0147735 19329.12 395.55354
0.0150521 19297.7 388.68649
0.0153307 19117.05 378.4577
0.0156092 19012.69 377.90529
0.0158878 19440.72 371.46861
0.0161664 19228.24 360.88032
0.0164449 19360.54 363.35087
0.0167235 18530.11 348.01537
0.0170021 18841.48 348.06025
0.0172806 19637.48 348.15263
0.0175592 18555.27 342.15042
0.0178378 19055.05 337.93638
0.0181164 18875.67 330.39351
0.0183949 19223.2 329.0366
0.0186735 18974.4 323.69354
0.0189521 18421.31 326.43875
0.0192306 18819.12 334.53274
0.0195092 18931.89 334.09799
0.0197878 18630.6 329.54918
0.0200664 18617.09 331.6695
0.0203449 18639.56 328.71698
0.0206235 18248.76 327.28775
0.0209021 18673.06 325.26927
0.0211806 18556.15 326.45701
0.0214592 18994.23 326.0814
0.0217378 18824.86 321.46444
0.0220163 18678.77 321.45183
0.0222949 18052.75 318.86545
0.0225735 18732.83 319.38087
0.0228521 18079 317.714
0.0231306 18314.19 314.77004
0.0234092 18055.45 314.44944
0.0236878 18396.67 316.43637
0.0239663 17856.83 309.28167
0.0242449 18125.97 311.70909
0.0245235 17946.69 308.80726
0.024802 17915.81 310.50932
0.0250806 18008.73 309.02095
0.0253592 18083.17 300.21018
0.0256378 17299.48 299.00047
0.0259163 18289.81 288.62742
0.0261949 17981.48 291.38194
0.0264735 17678.52 283.69536
0.026752 17405.43 276.20028
0.0270306 18068.55 278.23954
0.0273092 17629.73 276.47645
0.0275877 17183.25 270.48375
0.0278663 17359.52 269.06075
0.0281449 17191.96 265.01241
0.0284235 17216.1 268.09449
0.028702 17477.19 261.97774
0.0289806 17225.95 258.6049
0.0292592 17056.66 258.77526
0.0295377 16951.88 255.65179
0.0298163 17268.09 254.15564
0.0300949 16557.13 251.83964
0.0303735 16956.72 250.1546
0.030652 16554.77 251.33602
0.0309306 16953.37 247.94493
0.0312092 16843.78 244.94704
0.0314877 16941.62 245.39524
0.0317663 16322.29 240.56045
0.0320449 16750.34 240.11048
0.0323234 16602.03 240.77055
0.032602 16520.98 236.91625
0.0328806 16213.6 234.57085
0.0331592 16447.77 234.89662
0.0334377 16330.6 233.36295
0.0337163 16009.69 236.94639
0.0339949 16352.37 236.12132
0.0342734 16265.12 241.08111
0.034552 16164.78 239.62313
0.0348306 15884.12 237.15295
0.0351091 16258.75 238.91855
0.0353877 16023.88 239.51325
0.0356663 16138.11 241.9859
0.0359449 15854.71 236.36677
0.0362234 15556.95 236.18158
0.036502 15829 239.62943
0.0367806 15666.03 235.88549
0.0370591 15432.69 238.94048
0.0373377 15461.41 235.363
0.0376163 15293.1 234.85928
0.0378949 15121.38 234.72831
0.0381734 15183.01 232.26532
0.038452 15133.36 236.25548
0.0387306 15014.43 231.52309
0.0390091 15027.61 234.71876
0.0392877 15040.8 233.54237
0.0395663 14956.9 229.50085
0.0398448 15147.58 232.28228
0.0401234 14572.11 228.91886
0.040402 14999.3 232.98301
0.0406806 14952.58 230.38646
0.0409591 14637.52 224.91077
0.0412377 14855.43 228.79582
0.0415163 14688.62 227.31724
0.0417948 14710.77 226.52108
0.0420734 14137.26 226.442
0.042352 14496.76 227.78105
0.0426305 14275.79 228.98615
0.0429091 14472.78 226.95341
0.0431877 14584.69 231.75308
0.0434663 13969.56 229.81994
0.0437448 14334.34 234.74862
0.0440234 14340.57 234.92145
0.044302 14047.98 231.53566
0.0445805 13649.39 233.61236
0.0448591 13957.91 233.39054
0.0451377 14102.76 237.32735
0.0454163 13942.51 235.40576
0.0456948 13253.23 235.69943
0.0459734 13414.27 235.4029
0.046252 13748.4 236.36382
0.0465305 13682 232.05052
0.0468091 13631.96 231.14216
0.0470877 13738.71 229.29027
0.0473662 12972.11 225.30141
0.0476448 13297.07 226.37623
0.0479234 12752.22 222.33823
0.048202 13175.1 221.83701
0.0484805 13191.22 220.81299
0.0487591 12867.41 217.41257
0.0490377 13200.39 219.57935
0.0493162 13181.33 216.31458
0.0495948 12904.08 217.18614
0.0498734 12563.46 213.37466
0.0501519 12360.7 213.86526
0.0504305 12305.59 214.73991
0.0507091 12609.74 214.11034
0.0509877 12670.78 213.93155
0.0512662 11855.14 212.05501
0.0515448 12419.03 211.43272
0.0518234 12288.09 213.5716
0.0521019 12376.61 212.4682
0.0523805 12166.51 211.47538
0.0526591 11830.34 212.75344
0.0529376 12155.24 210.27488
0.0532162 12181.82 210.65956
0.0534948 11708.68 208.55208
0.0537734 11813.61 209.17641
0.0540519 11682.16 208.74623
0.0543305 11704.72 207.39564
0.0546091 11862.59 206.85717
0.0548876 11560.81 202.56702
0.0551662 11311.39 203.05067
0.0554448 11527.44 204.03023
0.0557234 11148.37 200.85831
0.0560019 11491.41 202.21904
0.0562805 11318.26 198.68698
0.0565591 11185.83 199.90396
0.0568376 11226.49 200.54781
0.0571162 10691.89 198.71967
0.0573948 11005.4 199.32584
0.0576733 10738.82 196.36238
0.0579519 11010.51 197.8302
0.0582305 10687.11 196.01574
0.0585091 10866.63 195.74502
0.0587876 10779.19 196.76855
0.0590662 10569.41 195.79913
0.0593448 10491.94 195.82754
0.0596233 10239.51 193.52165
0.0599019 10654.43 193.04919
0.0601805 10449.08 193.70365
0.060459 9984.77 192.5816
0.0607376 9845.14 190.86119
0.0610162 10164.94 192.06417
0.0612948 9879.8 192.06348
0.0615733 10347 191.37069
0.0618519 9975.35 189.91737
0.0621305 9984.81 189.62822
0.062409 9879.27 189.01892
0.0626876 9799.47 190.89432
0.0629662 9827.06 188.11403
0.0632448 9605.16 187.3409
0.0635233 9533.5 187.23187
0.0638019 9702.96 186.54017
0.0640805 9457.63 186.98842
0.064359 9426.34 184.81907
0.0646376 9081.77 186.18747
0.0649162 9190.39 184.8811
0.0651947 9392.01 185.15663
0.0654733 8845.47 183.03323
0.0657519 8935.82 183.09328
0.0660305 9133.19 184.26273
0.066309 9020.42 183.03235
0.0665876 8843.55 183.4547
0.0668662 8355.97 180.66268
0.0671447 8980.25 180.9105
0.0674233 8592.15 181.34953
0.0677019 8680.02 179.65259
0.0679804 8869.93 180.96631
0.068259 8371.67 179.84293
0.0685376 8527.22 179.33836
0.0688162 8361.96 178.48496
0.0690947 8327.03 176.44062
0.0693733 8516.47 179.08908
0.0696519 8011.82 177.43232
0.0699304 8268.08 178.0842
0.070209 7927.42 176.83611
0.0704876 8125.01 174.44604
0.0707662 8133.83 176.76723
0.0710447 8142.38 175.44876
0.0713233 7493.59 175.47321
0.0716019 7960.05 175.7288
0.0718804 7523.78 172.66227
0.072159 7606.28 173.98324
0.0724376 7616.54 173.03874
0.0727161 7809.38 172.88033
0.0729947 7691.35 173.29045
0.0732733 7443.85 172.23104
0.0735519 7443.24 171.04473
0.0738304 7500.23 171.69405
0.074109 7104.37 169.96473
0.0743876 7515.23 170.65911
0.0746661 7387.61 169.50358
0.0749447 7307.29 169.11624
0.0752233 6982.43 169.97583
0.0755018 6952.38 169.09539
0.0757804 7135.15 169.11533
0.076059 6541.14 167.98633
0.0763376 7031.57 168.19969
0.0766161 6639.45 166.55574
0.0768947 6956.24 167.72665
0.0771733 6668.01 166.34591
0.0774518 6571.25 165.67517
0.0777304 6944.14 165.04452
0.078009 6452.65 170.44297
0.0782875 6524.4 170.25684
0.0785661 6512.42 170.88148
0.0788447 6393.53 171.13698
0.0791233 6381.12 172.83804
0.0794018 6109.51 174.93287
0.0796804 6057.68 171.81117
0.079959 5863.79 174.17074
0.0802375 6399.21 175.24624
0.0805161 5560.99 175.58685
0.0807947 6064.03 175.99112
0.0810733 5617.06 173.63231
0.0813518 5846.02 176.8311
0.0816304 5640.99 177.51762
0.081909 5766.14 177.09174
0.0821875 5828.6 178.28434
0.0824661 5728.82 176.96525
0.0827447 5684.85 178.13861
0.0830232 5787.94 177.61148
0.0833018 5299.04 176.97812
0.0835804 5421.04 178.36398
0.083859 5334.13 178.81233
0.0841375 5441.76 179.71953
0.0844161 5146.71 177.75558
0.0846947 5164.21 174.60879
0.0849732 5233.78 173.29575
0.0852518 5223.72 171.90099
0.0855304 4915.91 170.14987
0.0858089 5270.5 167.19926
0.0860875 5053.22 168.01412
0.0863661 4971.33 167.39757
0.0866447 5144.01 167.2243
0.0869232 4989.48 165.4754
0.0872018 4822.93 165.40496
0.0874804 4921.82 165.50094
0.0877589 4707.96 163.56858
0.0880375 4538.92 161.24194
0.0883161 4614.14 161.82712
0.0885947 4642.75 161.951
0.0888732 4432.9 161.31911
0.0891518 4362.4 159.46952
0.0894304 4822.59 159.538
0.0897089 4239.55 158.92706
0.0899875 4425.46 158.2698
0.0902661 4569.54 157.53929
0.0905446 4385.17 157.54851
0.0908232 4575.74 157.16884
0.0911018 4096.51 155.8527
0.0913804 3911.65 155.12092
0.0916589 4158.41 154.97609
0.0919375 4213.01 158.02801
0.0922161 3990.3 161.18694
0.0924946 4315.33 159.98166
0.0927732 3957.19 161.48484
0.0930518 3960.1 161.65811
0.0933303 4006.71 163.66953
0.0936089 3998.56 163.7648
0.0938875 3841.52 163.52304
0.0941661 3617.84 164.33522
0.0944446 3793.1 163.71026
0.0947232 3858.16 163.24207
0.0950018 3686.61 164.01901
0.0952803 3527.04 164.16239
0.0955589 3827.93 166.12102
0.0958375 3199.47 162.33714
0.0961161 3590.45 160.11548
0.0963946 3668.1 158.13662
0.0966732 3586.94 157.3537
0.0969518 3523.29 157.02189
0.0972303 3412.44 155.74865
0.0975089 3597.94 154.659
0.0977875 3594.47 153.91212
0.098066 3328.32 154.55169
0.0983446 3254.02 153.44956
0.0986232 2992.83 152.50982
0.0989018 3141.85 153.77119
0.0991803 3155.14 152.75033
0.0994589 3009.31 150.9884
0.0997375 3236.07 150.86255
0.100016 3095.82 149.68544
0.100295 2967.99 149.39763
0.100573 2698.53 150.32726
0.100852 3034.9 149.20499
0.10113 2818.74 148.43302
0.101409 2997.03 147.04471
0.101687 2843.47 146.7142
0.101966 2777.77 146.59762
0.102245 2850.43 146.64907
0.102523 2562.05 146.76142
0.102802 2829.34 146.48954
0.10308 2814.79 145.77388
0.103359 2612.81 145.32003
0.103637 2412.21 145.18006
0.103916 2499.22 144.99308
0.104195 2416.68 144.7177
0.104473 2448.45 143.664
0.104752 2341.11 144.19792
0.10503 2261.89 144.22069
0.105309 2411.18 143.5316
0.105587 2662.47 143.55569
0.105866 2481.68 142.24864
0.106145 2567.27 143.53984
0.106423 2363.09 142.4493
0.106702 2524.12 141.9991
0.10698 2331.63 142.9415
0.107259 2241.31 140.50579
0.107537 2438.41 142.39074
0.107816 2216.9 141.31276
0.108095 2086.87 141.43005
0.108373 2165.26 141.75246
0.108652 2189.66 139.67011
0.10893 2037 140.82399
0.109209 2046.74 140.65056
0.109487 2059.54 139.45544
0.109766 1916.79 140.03048
0.110045 2175.78 139.50858
0.110323 2227.02 138.75533
0.110602 1958.97 138.45817
0.11088 1859.84 138.99878
0.111159 2006.05 139.64788
0.111437 1816.13 137.70477
0.111716 1897.54 138.37081
0.111995 1746.95 137.55326
0.112273 1917.81 137.43016
0.112552 1545.22 137.3311
0.11283 1759.87 137.06949
0.113109 1870.31 137.17407
0.113387 1797.44 137.10696
0.113666 1756.48 137.42589
0.113945 1751.26 136.09606
0.114223 1543.18 136.47866
0.114502 1472.38 135.32595
0.11478 1721.95 136.35228
0.115059 1695.9 134.60726
0.115337 1607.65 135.09487
0.115616 1661.75 135.21141
0.115895 1482.98 134.84812
0.116173 1444.4 135.07499
0.116452 1643.84 133.80576
0.11673 1603.39 134.72792
0.117009 1573.97 134.32069
0.117287 1591.84 134.33989
0.117566 1326.49 133.86144
0.117845 1410.67 133.80818
0.118123 1284.89 133.69863
0.118402 1685.14 133.31482
0.11868 1396.96 132.43702
0.118959 1393.62 132.27426
0.119237 1314.97 132.45712
0.119516 1417.12 132.55414
0.119795 1299.59 132.3796
0.120073 1344.45 131.3161
0.120352 1442.58 132.85044
0.12063 1190.01 131.307
0.120909 1104.38 131.00743
0.121187 1188.62 131.06559
0.121466 1214.67 130.22383
0.121745 1223.59 131.53401
0.122023 1212.54 129.73102
0.122302 1101.28 129.33046
0.12258 1026.81 128.98188
0.122859 1197.71 128.65293
0.123137 1383.26 128.93906
0.123416 1060.78 127.98395
0.123695 1212.88 128.0226
0.123973 954.36 128.51381
0.124252 1270.01 127.43241
0.12453 1160.54 127.74629
0.124809 1116.14 127.07639
0.125087 844.08 128.27206
0.125366 1189.26 127.28873
0.125645 1139.08 126.28866
0.125923 1119.99 127.91475
0.126202 994.37 127.5665
0.12648 974.19 127.95561
0.126759 957.9 127.34636
0.127037 1036.27 126.29662
0.127316 651.94 126.38966
0.127594 896.79 126.93519
0.127873 755.61 127.25843
0.128152 1014.76 126.37556
0.12843 856.27 125.80846
0.128709 1000.9 126.57446
0.128987 1033.36 125.82128
0.129266 941.72 124.87734
0.129544 688.9 126.01306
0.129823 760.93 125.41434
0.130102 886.45 125.53548
0.13038 654.37 125.00684
0.130659 729.71 124.54127
0.130937 740.65 124.53297
0.131216 718.95 124.95606
0.131494 779 124.28428
0.131773 691.08 124.71892
0.132052 690.07 123.04176
0.13233 619.03 124.26072
0.132609 622.68 123.43732
0.132887 787.29 123.44782
0.133166 748.11 123.54972
0.133444 771.57 122.87442
0.133723 716.83 123.77166
0.134002 750.52 122.70854
0.13428 475.59 122.831
0.134559 547.11 123.57219
0.134837 714.88 122.28392
0.135116 426.31 122.78106
0.135394 506.14 121.60639
0.135673 639.25 122.13445
0.135952 551.65 122.43725
0.13623 640.89 121.12466
0.136509 590.16 122.32138
0.136787 487.86 121.34177
0.137066 650.01 122.72734
0.137344 551.31 124.59766
0.137623 450.93 124.82891
0.137902 638.55 127.3333
0.13818 419.58 126.45859
0.138459 679.83 126.43834
0.138737 523.14 127.52042
0.139016 409.61 127.1718
0.139294 682.28 129.52681
0.139573 134.8 128.43637
0.139852 516.15 128.86896
0.14013 466.83 130.2817
0.140409 569.97 128.8906
0.140687 351.57 130.10734
0.140966 679.72 130.67563
0.141244 361.54 129.8743
0.141523 518.22 132.15365
0.141802 407.87 130.82448
0.14208 322.37 131.83472
0.142359 266.39 131.14037
0.142637 413.33 131.93227
0.142916 402.03 132.00778
0.143194 280.18 131.66947
0.143473 358.14 132.69081
0.143752 430.03 129.76873
0.14403 330.33 128.90943
0.144309 495.04 127.01004
0.144587 284.68 125.30681
0.144866 435.43 125.67215
0.145144 128.93 125.33795
0.145423 346.35 124.37254
0.145702 124.18 124.30116
0.14598 420.16 124.73236
0.146259 321.51 123.1296
0.146537 579.1 123.68434
0.146816 291.27 123.35677
0.147094 398.08 122.55308
0.147373 236.32 121.96842
0.147652 663.12 122.23452
0.14793 143.61 121.80779
0.148209 323.21 122.10152
0.148487 405.32 121.34891
0.148766 254.96 120.89623
0.149044 259.67 121.1598
0.149323 345.41 120.45064
0.149602 347.13 120.65807
0.14988 169.1 120.69442
0.150159 398.82 119.67093
0.150437 132.88 119.61248
0.150716 417.65 120.21144
0.150994 285.25 119.61767
0.151273 324.29 119.85308
0.151552 351.29 119.40887
0.15183 322.88 119.29485
0.152109 226.91 119.48696
0.152387 404.33 119.04827
0.152666 436.14 119.55345
0.152944 183.23 119.21712
0.153223 241.91 117.83892
0.153502 201.7 118.78565
0.15378 373.25 117.94098
0.154059 164.44 118.13272
0.154337 110.18 117.61816
0.154616 205.05 116.64482
0.154894 249.02 117.80764
0.155173 63.94 117.49023
0.155452 290.6 117.38861
0.15573 360.48 117.15446
0.156009 160.55 117.2619
0.156287 359.4 116.97468
0.156566 170.23 115.94309
0.156844 162.53 117.44402
0.157123 323.1 117.29725
0.157402 264.29 116.13482
0.15768 281.74 115.6398
0.157959 514.35 115.49206
0.158237 316.28 115.71403
0.158516 234.58 115.52396
0.158794 114.22 115.56814
0.159073 197.52 114.83684
0.159352 138.92 115.2427
0.15963 129.4 114.68426
0.159909 139.94 114.92329
0.160187 348.46 114.20565
0.160466 227.7 115.21181
0.160744 76.02 114.75578
0.161023 333.64 114.17094
0.161302 267.07 113.8182
0.16158 134.48 113.64817
0.161859 37.09 114.22298
0.162137 214.71 114.22522
0.162416 -54 113.07265
0.162694 85.18 113.2189
0.162973 108.6 113.41428
0.163252 126.15 112.87859
0.16353 241.86 113.48183
0.163809 254 112.49712
0.164087 195.68 113.6114
0.164366 213.29 113.03463
0.164644 220.7 111.57614
0.164923 157.24 113.19689
0.165201 87.31 112.36512
0.16548 174.49 112.9688
0.165759 46.71 111.81267
0.166037 12.66 111.2755
0.166316 189.17 112.49592
0.166594 250.38 111.26486
0.166873 145.13 111.68621
0.167151 86.09 111.02624
0.16743 232.29 110.94172
0.167709 236.74 110.92352
0.167987 162.36 110.69838
0.168266 -11.04 110.82178
0.168544 142.16 110.56948
0.168823 113.17 110.59582
0.169101 154.55 110.9386
0.16938 237.48 109.85391
0.169659 29.03 110.87365
0.169937 47.28 110.44741
0.170216 312.9 110.02268
0.170494 280.87 110.25369
0.170773 204.79 109.80375
0.171051 77.02 110.2956
0.17133 304.54 110.10701
0.171609 -79.94 109.87214
0.171887 -26.08 110.04719
0.172166 146.54 110.32118
0.172444 83.27 109.94837
0.172723 130.18 109.83055
0.173001 269.98 109.43336
0.17328 132.57 109.60339
0.173559 94.8 109.9541
0.173837 55.38 109.45119
0.174116 146.87 109.5595
0.174394 78.45 109.47377
0.174673 29.67 109.85545
0.174951 21.24 109.72885
0.17523 185.92 109.53489
0.175509 81.41 109.41274
0.175787 141.05 109.17688
0.176066 -16.71 109.04933
0.176344 216.7 109.61767
0.176623 183.83 108.88844
0.176901 104.64 108.72702
0.17718 178.62 108.38478
0.177459 120.45 108.87258
0.177737 24.75 109.08551
0.178016 67.74 107.99873
0.178294 -34.92 108.66937
0.178573 73.1 107.58089
0.178851 21.97 108.69904
0.17913 88.61 107.42179
0.179409 163.33 108.10437
0.179687 155.24 108.08165
0.179966 -76.71 108.5779
0.180244 56.62 107.84116
0.180523 83.63 107.36334
0.180801 131.29 107.49699
0.18108 288.15 108.23951
0.181359 106.37 108.13085
0.181637 304.78 107.6791
0.181916 119.13 107.16548
0.182194 146.59 107.86688
0.182473 77.82 108.41114
0.182751 123.49 107.50568
0.18303 44.19 108.34371
0.183309 58.76 107.76577
0.183587 -10.63 108.08748
0.183866 96.52 108.40968
0.184144 146.68 108.00611
0.184423 62.81 108.35923
0.184701 24.24 108.37369
0.18498 105.09 108.49406
0.185259 76.67 108.5786
0.185537 -11.71 108.10991
0.185816 226.28 108.28683
0.186094 -115.22 108.42272
0.186373 360.96 108.1542
0.186651 70.99 107.74979
0.18693 242.56 107.79607
0.187209 33.61 107.20426
0.187487 -58.23 107.84295
0.187766 80.54 107.25147
0.188044 210.44 106.9675
0.188323 120.48 107.35827
0.188601 206.17 106.5493
0.18888 51.87 107.1318
0.189159 34.93 106.69236
0.189437 173.93 106.95476
0.189716 87.52 106.86329
0.189994 97.5 106.39546
0.190273 -32.52 106.19097
0.190551 44.31 106.2924
0.19083 64.66 105.79021
0.191109 251.82 106.36493
0.191387 130.75 105.49797
0.191666 45.3 106.13173
0.191944 157.79 105.70538
0.192223 232.16 105.03891
0.192501 33.01 105.56869
0.19278 119.07 104.63425
0.193059 106.34 105.12251
0.193337 205.81 105.08374
0.193616 43.49 105.12475
0.193894 271.46 105.14237
0.194173 67.16 104.76021
0.194451 288.65 104.58447
0.19473 207.64 105.07544
0.195009 98.7 104.44899
0.195287 60.15 104.86773
0.195566 256.16 104.09297
0.195844 -42.07 104.66388
0.196123 129.84 105.51624
0.196401 -21.69 106.12596
0.19668 216.08 107.83122
0.196959 92.28 107.06521
0.197237 240.62 108.39199
0.197516 210.8 107.96799
0.197794 245.73 108.98059
0.198073 234.61 109.80173
0.198351 100.34 108.98986
0.19863 9.92 110.15876
0.198909 49.56 109.8546
0.199187 -10.65 109.41744
0.199466 61.74 111.14362
0.199744 59.14 110.30372
0.200023 -69.18 111.11207
0.200301 209.31 111.42681
0.20058 -27.05 111.45289
0.200858 362.69 112.00753
0.201137 218.47 112.01021
0.201416 132.77 111.8606
0.201694 122.55 112.13759
0.201973 19.75 112.45565
0.202251 80.73 113.25173
0.20253 123.78 113.54079
0.202808 240.41 111.43839
0.203087 -62.86 110.83413
0.203366 165.74 110.12704
0.203644 243.91 110.15424
0.203923 105.8 108.73804
0.204201 80.05 108.43287
0.20448 163.92 108.85395
0.204758 180.44 107.63167
0.205037 138.03 107.85068
0.205316 -23.47 107.63404
0.205594 27.92 107.02386
0.205873 -106 107.38843
0.206151 129.3 105.74988
0.20643 187.19 107.35719
0.206708 -111.48 106.27431
0.206987 -1.05 105.96231
0.207266 27.25 106.41765
0.207544 69.92 105.47525
0.207823 275.37 106.69212
0.208101 205.99 105.72169
0.20838 139.18 106.26732
